# Mains_Frequency_(Hz) =,60,,,,,,,,,,,,,,,,,,,,,,,,,,,
# Sample_Frequency_(Hz) =,300,,,,,,,,,,,,,,,,,,,,,,,,,,,
# Filter_Delay_(ms) =,43.3,,,,,,,,,,,,,,,,,,,,,,,,,,,
# Sensor_Data_Units =,uV,,,,,,,,,,,,,,,,,,,,,,,,,,,
# Headset_Name =,DSI-24 SN:4618,,,,,,,,,,,,,,,,,,,,,,,,,,,
# Data_Logger =,DSI-Streamer-v.1.08.18,,,,,,,,,,,,,,,,,,,,,,,,,,,
# Date =,5/25/2018,,,,,,,,,,,,,,,,,,,,,,,,,,,
# Time =,17:11:00,,,,,,,,,,,,,,,,,,,,,,,,,,,
# Patient_ID =,X F 01-MAY-1999 X,,,,,,,,,,,,,,,,,,,,,,,,,,,
# Record_ID =,Startdate 25-MAY-2018 EEG_XX X 4618,,,,,,,,,,,,,,,,,,,,,,,,,,,
# Filter =,Non-Filtered,,,,,,,,,,,,,,,,,,,,,,,,,,,
# Comments =,,,,,,,,,,,,,,,,,,,,,,,,,,,,
# Reference location:,Pz,,,,,,,,,,,,,,,,,,,,,,,,,,,
# Trigger Source,Wireless,,,,,,,,,,,,,,,,,,,,,,,,,,,
# Channel_Number =,ch_1,ch_2,ch_3,ch_4,ch_5,ch_6,ch_7,ch_8,ch_9,ch_10,ch_11,ch_12,ch_13,ch_14,ch_15,ch_16,ch_17,ch_18,ch_19,ch_20,ch_21,ch_22,ch_23,ch_24,Trigger,Time_Offset,ADC_Status,ADC_Sequence,Comments
Time,P3,C3,F3,Fz,F4,C4,P4,Cz,CM,A1,Fp1,Fp2,T3,T5,O1,O2,X3,X2,F7,F8,X1,A2,T6,T4,Trigger,Time_Offset,ADC_Status,ADC_Sequence,Comments
0.0033,-36.9,-165.9,-150.9,41.4,-60.3,-106.8,-18.9,28.2,-518.7,-28.5,187.2,1790.1,-313.2,1051.8,1637.4,223.8,1.2,2.4,-1197.3,-3679.2,-16.8,1.5,438.9,-211.8,0,6,0,18,Start Data Acquisition
0.0067,-40.2,-169.2,-138.3,42.9,-44.4,-106.8,-23.1,26.7,-74.1,-36.3,147.9,1697.7,-318.9,1051.2,1645.5,213.6,0.9,2.4,-1204.8,-3693.0,-17.1,0.0,427.5,-216.6,0,12,0,19,
0.0100,-36.3,-165.9,-145.2,44.4,-25.8,-104.7,-23.7,29.7,-444.6,-45.3,144.6,1627.5,-319.8,1051.2,1650.9,220.5,1.5,2.1,-1246.2,-3747.6,-16.5,4.8,432.3,-214.2,0,18,0,20,
0.0133,-41.1,-168.0,-145.2,38.4,-58.5,-116.7,-27.6,25.8,-815.1,-43.5,124.2,1689.9,-324.9,1046.7,1646.7,203.4,0.9,2.4,-1277.1,-3725.7,-17.1,-4.8,418.2,-225.3,0,24,0,21,
0.0167,-40.2,-168.0,-160.5,36.0,-61.5,-114.3,-22.2,27.9,-1037.4,-38.7,142.2,1677.3,-324.0,1042.8,1640.7,210.3,1.5,2.4,-1267.2,-3769.5,-17.1,-1.5,425.7,-219.0,0,30,0,22,
0.0200,-45.0,-175.8,-157.2,34.2,-59.1,-114.9,-24.3,24.6,-518.7,-43.5,98.7,1634.7,-342.0,1041.3,1650.6,224.1,1.2,2.4,-1278.9,-3695.4,-16.8,3.0,426.9,-215.7,0,36,0,23,
0.0233,-40.2,-171.6,-168.6,34.8,-49.5,-118.2,-26.4,26.1,-148.2,-42.3,122.1,1673.4,-340.2,1046.7,1669.8,243.3,1.2,2.4,-1284.0,-3777.9,-16.8,10.8,431.7,-207.6,0,42,0,24,
0.0267,-41.7,-168.0,-159.6,31.8,-61.2,-111.0,-27.9,26.7,-444.6,-25.8,117.9,1682.4,-328.2,1041.6,1642.2,217.2,1.5,2.4,-1321.8,-3777.9,-17.1,7.2,432.0,-220.5,0,48,0,25,
0.0300,-42.6,-170.7,-165.6,34.2,-54.3,-114.3,-29.1,22.8,-889.2,-29.7,112.5,1623.0,-321.9,1036.8,1645.8,213.6,1.2,2.4,-1346.7,-3786.0,-16.5,14.4,423.0,-212.4,0,54,0,26,
0.0333,-42.3,-179.4,-173.4,20.7,-53.4,-116.4,-26.7,17.7,-1259.7,-39.0,119.1,1557.3,-326.1,1036.5,1640.4,204.6,0.9,2.4,-1345.8,-3773.7,-17.1,1.5,415.5,-219.3,0,60,0,27,
0.0367,-37.2,-168.0,-159.9,31.8,-57.6,-118.8,-30.9,21.9,-666.9,-21.0,103.2,1585.8,-312.9,1042.5,1639.2,232.2,1.2,2.4,-1342.2,-3848.7,-17.1,10.5,423.3,-218.1,0,66,0,28,
0.0400,-37.5,-171.9,-167.4,21.0,-73.2,-117.0,-30.0,17.4,-296.4,-27.3,101.7,1718.7,-318.6,1045.5,1660.2,226.5,1.2,2.4,-1364.7,-3772.5,-17.1,12.6,423.3,-229.8,0,72,0,29,
0.0433,-42.0,-174.9,-168.3,17.4,-85.5,-124.2,-34.5,8.7,-518.7,-36.0,94.5,1716.3,-318.3,1037.1,1653.0,225.9,1.8,2.4,-1368.3,-3803.1,-17.1,2.7,422.4,-225.6,0,78,0,30,
0.0467,-45.0,-180.3,-171.6,15.6,-82.8,-122.1,-38.4,8.7,-815.1,-35.7,89.4,1659.0,-328.8,1035.9,1630.2,209.7,1.2,2.7,-1428.9,-3742.5,-16.8,12.6,408.6,-216.6,0,84,0,31,
0.0500,-53.7,-183.6,-183.0,15.9,-64.2,-131.7,-44.4,5.4,-1333.8,-40.8,73.2,1536.3,-330.6,1031.1,1626.9,212.1,1.2,2.4,-1455.6,-3769.8,-16.8,-6.3,403.2,-225.9,0,90,0,32,
0.0533,-51.6,-179.4,-180.6,23.4,-54.6,-125.7,-47.4,6.3,-666.9,-24.6,61.2,1600.2,-333.9,1038.6,1659.9,233.7,1.5,2.4,-1413.6,-3825.9,-17.1,0.3,401.4,-223.5,0,96,0,33,
0.0567,-48.6,-177.3,-175.8,30.0,-66.9,-122.4,-40.2,9.0,-370.5,-29.7,45.6,1615.5,-337.5,1042.2,1657.5,238.2,1.5,2.7,-1426.8,-3782.1,-17.1,12.3,415.5,-231.9,0,102,0,34,
0.0600,-48.9,-179.7,-173.4,21.0,-69.9,-128.1,-42.3,7.2,-592.8,-33.0,58.2,1647.6,-333.0,1049.7,1657.5,227.1,1.2,2.7,-1442.1,-3757.8,-17.4,2.7,415.2,-216.3,0,108,0,35,
0.0633,-50.7,-179.4,-179.7,18.6,-89.7,-125.4,-39.9,9.0,-1111.5,-19.5,77.4,1662.3,-324.9,1040.4,1656.9,228.9,0.9,2.4,-1438.2,-3780.0,-17.1,9.9,415.5,-219.6,0,114,0,36,
0.0667,-50.4,-182.7,-178.5,19.8,-81.6,-126.6,-42.9,6.9,-1259.7,-27.3,75.0,1619.4,-324.3,1040.7,1657.2,212.4,1.2,2.7,-1452.0,-3765.6,-16.5,11.4,406.5,-225.9,0,120,0,37,
0.0700,-51.3,-184.8,-189.0,10.2,-96.6,-135.6,-40.8,8.1,-592.8,-30.9,63.9,1639.5,-326.1,1043.1,1682.4,234.9,0.9,2.4,-1466.4,-3773.7,-16.8,5.7,414.0,-231.0,0,126,0,38,
0.0733,-46.8,-177.0,-180.3,15.9,-94.5,-136.5,-39.3,14.1,-518.7,-32.4,61.5,1606.5,-322.8,1044.0,1690.2,238.2,1.2,2.4,-1439.7,-3777.3,-16.8,12.0,420.0,-229.2,0,132,0,39,
0.0767,-48.6,-180.3,-179.4,15.9,-86.1,-136.8,-33.0,10.5,-666.9,-31.2,64.2,1571.4,-326.1,1035.0,1683.3,233.4,1.5,2.7,-1434.9,-3812.4,-17.1,6.3,420.3,-226.5,0,138,0,40,
0.0800,-43.5,-175.5,-177.0,23.4,-60.0,-123.6,-26.7,16.5,-1111.5,-28.8,54.9,1563.9,-323.7,1041.6,1666.5,244.5,1.2,2.4,-1446.6,-3805.5,-16.8,6.9,420.6,-221.1,0,144,0,41,
0.0833,-39.9,-177.9,-180.9,24.3,-61.8,-121.5,-23.7,17.4,-1185.6,-33.3,33.3,1580.4,-322.2,1037.4,1656.3,244.2,1.2,2.1,-1431.6,-3898.2,-16.8,9.0,425.4,-216.3,0,150,0,42,
0.0867,-46.2,-177.9,-184.2,15.3,-58.5,-119.1,-21.3,18.3,-741.0,-35.1,20.1,1565.1,-330.9,1033.2,1662.3,261.6,0.9,2.4,-1433.1,-3901.5,-16.8,10.8,438.3,-213.0,0,156,0,43,
0.0900,-47.4,-181.5,-183.0,14.7,-93.3,-130.2,-26.1,17.7,-296.4,-41.1,28.5,1635.9,-336.6,1029.9,1680.0,264.9,0.9,2.4,-1421.4,-3835.5,-16.8,8.1,426.6,-219.6,0,162,0,44,
0.0933,-45.9,-182.4,-181.5,20.4,-53.1,-117.0,-17.1,25.5,-518.7,-40.5,33.0,1570.5,-340.8,1019.4,1660.5,253.8,1.2,2.4,-1456.8,-3887.1,-16.8,12.0,417.0,-216.9,0,168,0,45,
0.0967,-45.3,-184.2,-186.6,15.6,-76.5,-124.2,-21.6,21.6,-1111.5,-39.9,48.9,1567.8,-345.6,1015.8,1662.9,234.0,0.9,2.4,-1442.1,-3797.1,-17.4,6.3,409.8,-219.6,0,174,0,46,
0.1000,-45.6,-182.1,-185.1,21.3,-60.6,-117.3,-18.9,25.8,-1259.7,-28.5,54.6,1575.0,-341.4,1025.1,1647.3,230.7,1.2,2.1,-1459.2,-3776.4,-17.1,21.0,416.7,-204.9,0,180,0,47,
0.1033,-40.2,-179.4,-189.3,21.6,-61.5,-117.3,-18.6,25.8,-666.9,-27.3,50.4,1580.7,-335.7,1034.7,1678.8,246.0,1.2,2.7,-1446.9,-3819.6,-16.8,19.8,423.3,-201.6,0,186,0,48,
0.1067,-37.8,-175.5,-181.8,27.9,-74.7,-113.7,-21.3,25.2,-296.4,-22.5,41.7,1644.6,-332.7,1038.0,1678.2,256.2,1.2,2.4,-1476.6,-3768.0,-17.1,18.6,429.3,-211.8,0,192,0,49,
0.1100,-36.9,-174.9,-187.5,14.1,-79.5,-120.6,-23.4,22.8,-592.8,-30.9,33.3,1611.9,-331.2,1040.4,1671.6,241.2,1.2,2.7,-1469.1,-3798.6,-17.1,20.4,427.2,-221.4,0,198,0,50,
0.1133,-39.6,-183.0,-181.2,21.0,-75.9,-118.8,-22.5,24.6,-1111.5,-31.8,34.5,1571.4,-348.0,1034.4,1673.4,230.1,1.2,1.8,-1476.3,-3757.5,-16.8,21.9,424.8,-225.3,0,204,0,51,
0.1167,-34.2,-175.5,-182.4,19.2,-60.9,-115.5,-24.3,19.8,-1407.9,-26.7,29.4,1462.2,-332.7,1049.4,1660.2,243.0,1.2,2.4,-1441.2,-3831.0,-17.1,9.0,422.4,-219.3,0,210,0,52,
0.1200,-35.1,-174.3,-180.0,27.9,-36.9,-116.1,-21.3,21.9,-741.0,-16.5,36.3,1495.8,-340.8,1061.4,1685.1,249.9,1.5,2.7,-1439.7,-3876.9,-17.1,33.9,435.9,-216.9,0,216,0,53,
0.1233,-32.1,-172.5,-184.8,18.0,-79.2,-119.7,-24.3,17.4,-444.6,-14.4,40.8,1596.9,-330.0,1065.3,1712.4,261.9,1.5,2.1,-1433.7,-3853.5,-17.1,27.0,446.1,-210.0,0,222,0,54,
0.1267,-31.2,-167.1,-172.8,27.6,-73.5,-114.0,-20.4,23.4,-444.6,-15.0,41.1,1675.5,-314.7,1071.0,1711.8,264.9,1.5,2.4,-1447.2,-3871.5,-17.1,27.0,441.3,-212.7,0,228,0,55,
0.1300,-30.3,-171.0,-178.5,20.7,-84.6,-121.2,-21.3,21.9,-815.1,-11.7,39.0,1605.0,-316.5,1068.9,1671.6,251.1,0.9,2.1,-1452.3,-3863.7,-17.1,26.7,437.4,-210.3,0,234,0,56,
0.1333,-32.1,-171.9,-183.6,18.0,-91.5,-127.5,-22.2,18.0,-1333.8,-15.3,26.7,1590.6,-317.1,1063.5,1673.4,243.6,0.9,2.7,-1486.2,-3786.0,-17.1,9.0,431.1,-227.4,0,240,0,57,
0.1367,-33.3,-172.2,-184.8,20.7,-67.2,-125.4,-23.1,18.6,-666.9,-17.7,21.3,1495.5,-319.2,1066.8,1674.3,270.3,1.2,2.4,-1473.0,-3814.8,-16.8,6.6,441.9,-213.9,0,246,0,58,
0.1400,-36.9,-174.0,-189.9,20.1,-73.8,-122.1,-19.2,18.6,-370.5,-24.6,22.5,1590.6,-324.0,1068.9,1688.7,261.9,1.2,2.4,-1454.1,-3849.0,-16.8,8.4,443.1,-219.3,0,252,0,59,
0.1433,-34.5,-173.7,-180.6,23.4,-66.9,-111.6,-10.5,23.1,-666.9,-18.3,20.4,1570.8,-320.1,1052.4,1665.9,259.5,1.2,2.1,-1455.0,-3850.5,-17.4,17.1,450.3,-208.2,0,258,0,60,
0.1467,-32.4,-173.1,-183.6,27.0,-52.8,-109.8,-7.5,21.9,-1037.4,-20.7,24.3,1570.2,-316.2,1058.1,1663.2,261.0,0.9,2.4,-1461.6,-3795.6,-16.8,25.8,451.5,-197.4,0,264,0,61,
0.1500,-39.3,-175.2,-186.0,22.5,-43.5,-105.6,-9.6,25.5,-1407.9,-21.0,-2.1,1421.1,-321.0,1050.0,1653.9,254.7,1.2,2.7,-1460.1,-3831.3,-16.8,20.1,442.8,-205.2,0,270,0,62,
0.1533,-32.7,-168.9,-188.4,27.9,-22.2,-97.2,-3.3,32.4,-741.0,-3.6,14.4,1518.0,-310.8,1062.0,1684.2,266.7,0.9,2.4,-1428.9,-3858.6,-17.1,27.9,453.9,-186.0,0,276,0,63,
0.1567,-34.2,-168.0,-176.7,21.6,-67.5,-108.9,-7.2,30.9,-444.6,-5.1,24.3,1658.7,-312.6,1050.6,1680.6,258.3,1.2,2.4,-1412.7,-3777.9,-16.8,36.9,447.3,-189.3,0,282,0,64,
0.1600,-37.2,-174.0,-183.6,21.0,-77.1,-111.6,-6.3,30.0,-741.0,-18.3,39.3,1657.5,-319.8,1044.6,1674.0,246.3,0.9,2.4,-1422.9,-3746.4,-17.1,36.3,439.5,-194.7,0,288,0,65,
0.1633,-41.1,-178.8,-188.7,15.6,-85.5,-112.2,-9.3,29.1,-1185.6,-25.2,31.5,1630.5,-324.6,1033.5,1653.9,230.4,1.5,2.1,-1422.6,-3789.6,-17.1,31.8,435.6,-208.2,0,294,0,66,
0.1667,-47.4,-182.7,-195.9,7.8,-91.5,-119.4,-11.7,22.8,-1407.9,-27.6,31.8,1579.8,-330.9,1026.0,1635.9,231.9,0.9,2.7,-1434.0,-3794.7,-17.1,23.1,432.0,-204.6,0,300,0,67,
0.1700,-48.0,-184.2,-199.5,3.3,-66.9,-118.2,-12.3,23.4,-889.2,-28.8,20.4,1526.7,-332.7,1022.4,1651.5,255.0,1.5,2.4,-1420.8,-3768.6,-17.1,17.1,436.8,-213.3,0,306,0,68,
0.1733,-54.3,-189.6,-204.9,0.6,-77.4,-120.9,-15.6,20.4,-444.6,-38.1,7.8,1578.3,-357.0,1019.4,1647.3,240.9,1.2,2.7,-1411.2,-3743.4,-17.4,10.5,434.4,-220.8,0,312,0,69,
0.1767,-51.0,-185.4,-204.3,-4.2,-87.0,-122.7,-14.4,20.4,-741.0,-31.5,11.7,1525.8,-351.9,1025.7,1653.0,249.0,1.5,2.4,-1406.7,-3834.9,-16.8,8.1,428.7,-217.2,0,318,0,70,
0.1800,-54.6,-187.2,-206.1,-0.9,-64.2,-123.0,-16.5,22.5,-1037.4,-35.1,6.3,1493.4,-338.4,1027.5,1640.7,234.3,1.2,2.7,-1410.6,-3829.2,-16.8,0.9,412.2,-218.7,0,324,0,71,
0.1833,-51.0,-185.7,-208.2,-4.5,-74.1,-119.7,-12.9,22.5,-1556.1,-32.1,2.7,1544.4,-340.5,1031.1,1629.0,227.7,1.5,2.1,-1423.5,-3868.8,-16.8,12.6,418.5,-211.8,0,330,0,72,
0.1867,-54.6,-189.3,-204.9,-10.2,-101.1,-128.7,-13.2,16.2,-815.1,-28.5,6.6,1585.5,-336.3,1032.0,1655.4,246.0,0.9,2.4,-1416.6,-3823.2,-16.8,11.4,428.1,-218.7,0,336,0,73,
0.1900,-54.9,-194.7,-216.3,-15.0,-109.8,-138.0,-21.9,10.2,-518.7,-30.0,-5.4,1587.0,-340.8,1035.3,1673.1,236.1,1.2,2.4,-1405.8,-3807.0,-17.1,4.2,418.8,-223.5,0,342,0,74,
0.1933,-50.1,-195.6,-217.2,-11.7,-95.7,-136.2,-19.5,11.1,-666.9,-27.0,-0.6,1525.8,-341.1,1039.5,1674.3,243.6,0.9,2.4,-1412.1,-3809.1,-17.1,5.4,420.3,-229.5,0,348,0,75,
0.1967,-57.3,-200.7,-224.7,-18.9,-113.4,-143.4,-23.1,3.9,-1185.6,-35.4,-9.3,1501.5,-346.8,1038.0,1665.3,231.0,1.2,2.4,-1431.6,-3795.3,-17.1,3.0,411.3,-236.1,0,354,0,76,
0.2000,-49.8,-200.1,-223.2,-16.8,-90.9,-147.0,-24.9,3.6,-1556.1,-23.1,-6.6,1508.4,-333.0,1046.7,1657.8,230.7,1.5,2.7,-1423.8,-3855.3,-17.1,12.0,417.0,-222.3,0,360,0,77,
0.2033,-44.7,-193.8,-223.5,-21.9,-110.4,-141.6,-23.7,5.7,-889.2,-27.3,-27.9,1470.6,-354.9,1052.1,1696.2,239.4,0.9,2.1,-1416.9,-3864.3,-16.8,6.6,418.8,-233.7,0,366,0,78,
0.2067,-45.9,-189.3,-216.0,-2.7,-60.6,-121.5,-14.7,13.5,-518.7,-33.6,-29.4,1456.2,-345.9,1047.3,1678.5,243.9,1.2,2.7,-1381.8,-3882.9,-17.4,10.5,427.2,-223.8,0,372,0,79,
0.2100,-42.3,-190.2,-217.5,-1.5,-101.7,-133.5,-21.0,14.4,-815.1,-27.9,-4.5,1565.4,-334.8,1050.9,1691.7,257.1,1.2,2.4,-1386.0,-3792.0,-16.8,9.0,423.0,-223.5,0,378,0,80,
0.2133,-38.7,-185.7,-211.2,-3.9,-93.3,-129.9,-24.6,15.9,-1111.5,-24.0,17.4,1602.9,-332.4,1054.2,1680.3,236.1,0.9,2.7,-1394.4,-3794.7,-17.1,13.8,416.7,-221.1,0,384,0,81,
0.2167,-37.2,-183.6,-211.2,0.9,-87.0,-128.7,-26.4,15.9,-1630.2,-19.2,18.0,1533.6,-324.3,1053.0,1675.5,225.6,1.2,2.4,-1388.1,-3802.8,-16.8,16.5,406.8,-223.2,0,390,0,82,
0.2200,-38.1,-184.5,-204.3,3.9,-85.8,-125.4,-24.6,15.0,-1037.4,-18.6,13.8,1464.9,-337.5,1052.1,1701.0,258.9,0.6,2.7,-1384.2,-3829.5,-17.1,6.9,418.8,-220.5,0,396,0,83,
0.2233,-34.5,-177.9,-201.3,10.2,-52.8,-123.0,-21.6,20.1,-666.9,-13.8,11.4,1524.9,-333.3,1059.9,1710.3,269.4,1.2,2.4,-1375.2,-3785.4,-16.5,15.3,422.1,-203.1,0,402,0,84,
0.2267,-33.3,-176.1,-192.3,16.8,-58.5,-110.1,-20.1,24.6,-815.1,-12.3,10.5,1577.1,-342.9,1054.5,1685.7,264.0,1.2,2.7,-1410.9,-3853.8,-16.8,21.6,426.0,-215.7,0,408,0,85,
0.2300,-35.4,-169.8,-187.5,19.8,-75.0,-115.5,-17.1,25.8,-1259.7,-10.5,25.8,1571.7,-333.0,1045.8,1680.9,258.9,1.8,2.4,-1413.0,-3821.1,-17.1,22.8,424.5,-213.6,0,414,0,86,
0.2333,-36.9,-169.2,-183.0,17.7,-85.2,-123.3,-24.9,19.5,-1630.2,-21.0,24.0,1575.6,-310.5,1055.7,1666.5,243.0,0.9,2.4,-1396.8,-3823.2,-17.1,8.7,421.8,-228.6,0,420,0,87,
0.2367,-39.9,-170.7,-180.6,23.4,-72.3,-114.9,-14.1,28.5,-1111.5,-20.4,31.8,1550.1,-306.6,1052.1,1682.1,274.8,0.6,2.4,-1368.9,-3756.3,-17.1,24.0,434.1,-203.1,0,426,0,88,
0.2400,-49.5,-176.1,-185.4,22.8,-74.4,-119.7,-17.1,27.6,-741.0,-14.4,32.1,1519.8,-310.5,1040.7,1680.3,264.6,0.9,2.7,-1344.9,-3756.3,-16.8,30.3,435.3,-210.9,0,432,0,89,
0.2433,-47.1,-179.4,-188.4,22.8,-49.8,-113.1,-12.0,28.8,-1037.4,-23.1,28.8,1470.9,-312.0,1041.3,1692.0,264.6,1.2,2.7,-1345.2,-3816.0,-16.8,33.6,427.8,-189.3,0,438,0,90,
0.2467,-46.2,-180.0,-189.6,21.9,-68.7,-116.4,-12.3,30.6,-1704.3,-10.2,19.2,1486.5,-310.8,1043.1,1678.8,242.4,1.2,2.7,-1363.5,-3796.2,-17.1,22.5,410.4,-227.4,0,444,0,91,
0.2500,-43.2,-173.4,-186.3,25.5,-43.5,-106.5,-7.8,34.8,-1852.5,-15.9,16.5,1533.3,-316.5,1039.2,1679.1,230.4,0.9,2.4,-1356.9,-3784.5,-17.1,12.9,414.0,-223.5,0,450,0,92,
0.2533,-49.2,-180.0,-189.6,11.1,-77.4,-117.3,-15.0,30.3,-1259.7,-15.3,15.9,1568.7,-325.2,1030.8,1678.2,249.3,1.2,2.7,-1347.0,-3794.7,-16.8,18.9,417.0,-200.7,0,456,0,93,
0.2567,-51.9,-185.7,-198.0,3.6,-94.8,-125.7,-16.5,23.4,-889.2,-25.8,-0.3,1516.5,-328.8,1033.5,1687.5,258.9,1.2,2.4,-1336.2,-3824.1,-17.1,11.1,413.7,-216.9,0,462,0,94,
0.2600,-51.6,-187.5,-199.2,4.5,-94.5,-126.9,-12.9,22.5,-1185.6,-22.2,9.9,1557.9,-324.0,1036.2,1677.9,248.1,1.2,2.4,-1339.8,-3796.8,-16.8,13.8,425.7,-202.2,0,468,0,95,
0.2633,-44.1,-176.1,-194.1,9.0,-78.6,-116.4,-10.2,26.4,-1630.2,-8.4,16.8,1593.6,-330.3,1045.8,1683.6,243.6,0.9,2.4,-1337.4,-3723.0,-17.1,12.6,421.5,-215.4,0,474,0,96,
0.2667,-43.8,-182.1,-205.2,-1.5,-102.0,-125.1,-11.4,26.4,-2000.7,-13.5,3.9,1589.7,-337.2,1046.1,1669.5,224.7,1.2,2.1,-1349.4,-3817.8,-17.1,14.7,401.7,-216.6,0,480,0,97,
0.2700,-43.2,-182.1,-210.6,-10.2,-101.7,-128.7,-17.4,24.6,-1333.8,-6.6,-11.1,1497.3,-332.4,1052.4,1686.3,240.0,0.9,2.4,-1332.6,-3816.9,-16.8,19.2,408.6,-207.9,0,486,0,98,
0.2733,-40.5,-181.8,-208.2,-4.8,-80.4,-123.9,-13.2,21.9,-1037.4,-19.8,-14.4,1474.2,-321.3,1052.1,1701.0,249.9,1.2,2.7,-1315.8,-3875.7,-16.8,22.5,414.0,-210.3,0,492,0,99,
0.2767,-39.9,-180.6,-197.4,7.5,-50.4,-112.5,-14.7,18.9,-1185.6,-11.4,26.4,1506.6,-316.8,1051.8,1693.5,241.5,0.9,2.7,-1283.4,-3796.8,-16.8,45.0,411.9,-212.7,0,498,0,100,
0.2800,-42.6,-188.7,-204.9,-2.7,-78.6,-123.3,-18.6,12.3,-1630.2,-21.3,29.7,1609.2,-328.2,1047.0,1686.3,232.5,0.9,2.1,-1285.5,-3784.8,-16.8,24.0,411.3,-214.2,0,504,0,101,
0.2833,-38.7,-191.1,-213.9,-13.5,-103.2,-128.4,-18.3,8.7,-1778.4,-15.3,29.7,1486.5,-331.8,1042.5,1678.2,223.2,0.9,2.1,-1304.1,-3780.9,-16.8,31.5,409.8,-218.7,0,510,0,102,
0.2867,-41.1,-193.8,-209.7,-2.1,-75.9,-123.6,-21.3,11.1,-1185.6,-38.1,28.2,1489.8,-334.8,1043.7,1702.5,252.9,1.2,3.0,-1292.7,-3700.8,-16.8,28.8,399.3,-213.0,0,516,0,103,
0.2900,-40.8,-194.4,-207.6,0.0,-91.5,-125.1,-20.4,5.4,-518.7,-21.9,44.4,1607.1,-332.1,1044.6,1708.2,266.7,1.2,2.4,-1265.7,-3701.7,-16.8,28.5,422.4,-219.0,0,522,0,104,
0.2933,-41.7,-192.0,-207.0,4.8,-86.1,-117.9,-21.3,9.0,-815.1,-30.9,35.4,1568.4,-330.9,1040.4,1704.9,255.6,1.5,2.4,-1281.6,-3699.9,-16.8,23.7,413.7,-219.3,0,528,0,105,
0.2967,-33.0,-188.4,-199.2,16.2,-53.7,-103.8,-15.0,19.5,-1259.7,-19.5,42.6,1452.9,-324.0,1049.7,1711.2,248.4,0.9,2.4,-1269.0,-3777.6,-16.8,54.9,418.8,-197.7,0,534,0,106,
0.3000,-34.5,-183.9,-195.0,20.1,-63.9,-105.3,-16.2,19.5,-1556.1,-23.1,57.6,1583.4,-328.5,1052.4,1704.0,276.0,1.2,2.7,-1251.0,-3717.6,-16.8,44.4,420.0,-189.3,0,540,0,107,
0.3033,-34.5,-185.7,-199.8,18.6,-44.7,-101.1,-12.0,18.9,-963.3,-22.5,36.3,1599.9,-329.7,1055.7,1729.5,276.0,1.2,2.4,-1242.0,-3728.1,-16.8,36.0,438.0,-187.8,0,546,0,108,
0.3067,-35.7,-185.1,-191.1,18.6,-57.6,-98.7,-10.2,18.6,-592.8,-28.2,47.4,1584.9,-326.4,1056.3,1727.1,289.2,1.2,2.4,-1222.8,-3715.8,-17.1,42.9,433.8,-186.3,0,552,0,109,
0.3100,-38.7,-186.6,-201.0,19.2,-58.8,-104.7,-9.3,17.7,-815.1,-23.1,28.2,1561.2,-331.2,1042.2,1711.8,277.5,1.2,2.1,-1244.4,-3658.2,-17.1,38.7,429.6,-195.6,0,558,0,110,
0.3133,-36.9,-178.5,-195.6,21.6,-63.0,-94.5,-6.6,23.1,-1185.6,-19.5,42.0,1637.4,-329.4,1046.1,1719.9,266.7,1.2,2.1,-1220.7,-3744.6,-16.8,48.0,429.6,-174.0,0,564,0,111,
0.3167,-43.8,-186.3,-205.5,17.4,-56.7,-97.8,-9.3,18.9,-1482.0,-30.0,32.4,1588.8,-337.8,1042.2,1692.3,259.2,1.2,2.1,-1212.9,-3719.1,-16.8,41.7,432.3,-175.8,0,570,0,112,
0.3200,-45.3,-187.8,-200.1,18.6,-59.7,-95.1,-6.6,19.5,-963.3,-31.5,39.9,1611.0,-342.9,1038.0,1695.9,273.6,1.2,2.7,-1196.4,-3710.4,-17.1,48.6,439.5,-183.3,0,576,0,113,
0.3233,-51.9,-189.3,-207.9,21.6,-39.0,-91.2,-6.0,22.8,-518.7,-24.0,36.3,1533.6,-353.1,1030.2,1681.8,264.6,0.9,2.7,-1189.2,-3710.7,-17.4,68.7,439.2,-169.2,0,582,0,114,
0.3267,-51.6,-191.1,-205.8,23.4,-39.9,-89.1,-5.1,23.4,-741.0,-21.6,29.1,1553.7,-347.4,1026.6,1657.2,273.9,1.2,2.4,-1204.5,-3761.1,-16.8,45.9,450.3,-171.0,0,588,0,115,
0.3300,-51.9,-191.4,-200.1,29.4,-27.0,-84.3,-8.7,29.7,-1185.6,-23.7,28.5,1527.6,-342.9,1021.2,1636.2,237.0,0.9,2.4,-1207.5,-3712.2,-17.1,49.5,435.9,-183.9,0,594,0,116,
0.3333,-45.0,-181.5,-200.4,31.2,-38.4,-84.9,-6.0,31.5,-1852.5,-26.4,45.0,1597.5,-336.9,1035.0,1639.2,242.1,1.2,2.7,-1191.3,-3662.4,-16.8,54.0,434.4,-179.4,0,600,0,117,
0.3367,-47.1,-187.2,-212.4,30.0,-30.3,-88.2,-9.3,29.7,-963.3,-26.7,32.7,1504.5,-339.9,1032.6,1660.8,262.2,0.9,2.4,-1192.2,-3697.5,-17.4,62.7,438.3,-181.2,0,606,0,118,
0.3400,-41.7,-185.1,-202.2,31.5,-24.9,-85.5,-10.8,33.0,-592.8,-26.1,27.0,1473.3,-342.3,1036.5,1657.5,249.0,1.5,2.4,-1179.6,-3677.7,-17.1,70.5,437.7,-162.6,0,612,0,119,
0.3433,-41.7,-182.7,-209.7,21.3,-47.4,-98.7,-15.3,26.4,-815.1,-31.5,15.3,1606.2,-339.3,1038.3,1641.9,237.6,1.2,2.7,-1184.1,-3743.1,-17.1,63.0,432.0,-187.8,0,618,0,120,
0.3467,-47.4,-189.9,-206.7,16.8,-55.2,-99.0,-15.0,18.0,-1037.4,-40.2,19.8,1623.9,-354.0,1029.6,1625.4,236.1,1.2,2.4,-1179.0,-3722.1,-16.8,65.4,428.7,-177.9,0,624,0,121,
0.3500,-38.7,-183.0,-207.0,27.6,-26.7,-94.5,-18.9,25.2,-1630.2,-37.2,19.2,1539.9,-341.7,1033.8,1625.4,224.7,1.2,2.7,-1174.8,-3667.2,-16.8,45.3,425.4,-194.7,0,630,0,122,
0.3533,-44.7,-186.9,-215.1,18.6,-58.5,-98.1,-21.9,19.5,-1037.4,-30.9,17.7,1536.6,-345.6,1039.8,1638.3,227.4,0.9,2.7,-1178.4,-3728.1,-17.4,54.6,420.6,-179.4,0,636,0,123,
0.3567,-47.4,-189.0,-217.5,11.4,-60.9,-100.2,-19.5,17.4,-592.8,-44.1,15.6,1556.4,-354.0,1033.8,1659.3,227.1,1.2,2.4,-1161.6,-3738.6,-16.5,48.0,444.6,-179.4,0,642,0,124,
0.3600,-40.5,-183.3,-211.5,15.3,-57.3,-101.1,-17.7,23.1,-741.0,-23.7,21.6,1608.0,-338.7,1034.4,1635.6,225.9,1.2,2.4,-1159.2,-3774.0,-16.8,51.3,418.8,-189.3,0,648,0,125,
0.3633,-38.1,-177.0,-204.0,23.7,-57.3,-104.7,-19.8,28.8,-1111.5,-22.5,27.9,1582.5,-330.3,1039.8,1634.1,228.6,1.2,2.4,-1158.6,-3712.8,-16.8,34.8,413.4,-200.4,0,654,0,126,
0.3667,-42.9,-185.7,-206.4,22.5,-58.2,-97.5,-21.6,27.3,-1482.0,-25.2,21.9,1577.4,-339.9,1044.3,1623.0,211.5,1.2,2.4,-1167.9,-3716.1,-17.1,47.1,406.5,-187.2,0,660,0,127,
0.3700,-42.0,-183.3,-213.6,21.6,-53.7,-100.5,-17.1,26.1,-963.3,-28.2,18.6,1527.9,-343.8,1036.5,1650.0,233.1,0.9,2.4,-1178.1,-3728.1,-16.8,47.7,432.0,-188.4,0,666,0,128,
0.3733,-36.0,-180.6,-203.7,20.4,-69.6,-104.1,-16.2,29.1,-518.7,-23.4,19.8,1500.9,-330.9,1045.5,1667.1,234.9,0.9,2.4,-1152.3,-3731.7,-17.1,37.2,426.3,-202.2,0,672,0,129,
0.3767,-36.0,-177.9,-202.2,25.5,-40.5,-99.9,-16.8,36.6,-815.1,-23.4,24.6,1524.9,-332.7,1041.6,1673.1,228.9,0.9,2.7,-1167.3,-3729.3,-16.5,46.5,420.3,-185.4,0,678,0,130,
0.3800,-41.1,-189.6,-210.6,18.0,-59.7,-103.5,-21.9,31.8,-1259.7,-41.1,7.5,1542.3,-344.7,1050.3,1667.4,226.2,1.2,2.4,-1194.3,-3709.8,-16.8,34.2,412.2,-209.7,0,684,0,131,
0.3833,-37.2,-185.7,-211.2,20.7,-36.6,-103.8,-15.0,37.2,-1556.1,-41.7,6.3,1426.8,-353.1,1041.9,1659.3,231.9,1.2,2.4,-1192.8,-3818.1,-16.8,41.7,429.9,-174.3,0,690,0,132,
0.3867,-47.4,-191.4,-216.3,13.8,-30.0,-96.3,-19.5,30.0,-1037.4,-30.6,2.1,1380.6,-368.4,1040.1,1686.6,257.7,1.2,2.4,-1190.7,-3815.4,-17.1,44.1,430.5,-207.6,0,696,0,133,
0.3900,-48.6,-194.7,-220.8,9.3,-59.7,-106.8,-22.2,24.0,-444.6,-33.9,-6.9,1581.0,-363.9,1034.7,1697.4,258.9,1.5,2.7,-1183.8,-3777.0,-17.1,36.0,432.9,-208.2,0,702,0,134,
0.3933,-50.4,-196.5,-223.8,11.7,-33.9,-98.1,-15.0,23.4,-889.2,-39.0,-15.3,1478.1,-348.6,1036.8,1688.1,251.7,1.2,2.7,-1204.8,-3783.6,-16.8,36.0,437.1,-210.9,0,708,0,135,
0.3967,-46.5,-198.6,-218.4,16.8,-55.2,-109.8,-18.9,27.0,-1185.6,-41.4,9.0,1524.9,-346.8,1044.6,1698.6,257.1,0.9,2.4,-1201.8,-3747.3,-17.1,42.6,440.4,-189.9,0,714,0,136,
0.4000,-51.6,-198.6,-224.1,5.7,-89.7,-111.3,-24.6,19.8,-1556.1,-36.6,-4.8,1545.3,-347.1,1037.7,1689.9,246.6,1.5,2.7,-1208.1,-3711.3,-16.8,21.0,435.6,-207.3,0,720,0,137,
0.4033,-48.9,-201.3,-223.8,8.4,-54.0,-104.1,-24.9,18.3,-1037.4,-37.8,-2.4,1509.6,-339.0,1038.6,1700.1,262.2,1.2,2.4,-1212.3,-3735.0,-17.1,30.9,426.6,-205.8,0,726,0,138,
0.4067,-51.0,-201.3,-227.7,12.9,-53.1,-102.0,-21.0,19.5,-444.6,-28.5,9.0,1534.8,-342.3,1035.3,1710.6,268.2,1.2,2.4,-1203.3,-3694.8,-16.8,45.3,433.2,-203.1,0,732,0,139,
0.4100,-48.0,-204.0,-228.3,8.4,-60.6,-109.2,-29.1,15.6,-889.2,-42.0,-8.1,1546.5,-351.0,1037.1,1708.8,258.6,1.2,3.0,-1226.7,-3699.9,-17.1,46.5,420.6,-220.2,0,738,0,140,
0.4133,-48.3,-200.7,-228.3,7.5,-64.2,-112.2,-22.2,12.3,-1111.5,-43.2,-20.1,1555.8,-352.8,1038.3,1698.0,258.3,1.2,2.4,-1227.0,-3697.2,-16.8,45.9,423.9,-197.7,0,744,0,141,
0.4167,-46.5,-199.8,-231.6,7.5,-57.0,-108.9,-25.5,12.9,-1630.2,-44.4,-10.5,1506.6,-347.4,1048.2,1695.0,234.3,0.9,2.7,-1236.0,-3721.5,-17.1,53.4,414.0,-203.1,0,750,0,142,
0.4200,-48.0,-201.3,-232.8,2.7,-64.8,-108.9,-27.0,11.4,-963.3,-33.6,-9.6,1517.1,-347.4,1037.4,1691.4,260.4,0.9,1.8,-1251.6,-3777.3,-16.8,33.3,422.7,-201.0,0,756,0,143,
0.4233,-48.6,-204.0,-232.8,2.7,-69.9,-111.0,-30.6,13.2,-518.7,-43.5,-13.2,1461.6,-352.5,1036.5,1710.9,267.9,1.2,2.4,-1251.3,-3782.4,-16.8,48.6,416.7,-195.9,0,762,0,144,
0.4267,-52.8,-204.0,-231.9,4.8,-36.3,-107.4,-22.5,16.5,-666.9,-43.5,-16.2,1410.3,-347.1,1029.6,1701.9,273.0,1.2,2.7,-1264.8,-3775.2,-16.8,21.9,441.9,-211.2,0,768,0,145,
0.4300,-48.9,-195.3,-224.4,20.4,-25.8,-99.0,-16.8,25.5,-1259.7,-45.0,-19.5,1389.9,-341.4,1034.1,1691.4,252.6,1.5,2.4,-1267.2,-3743.7,-17.1,49.2,435.0,-170.1,0,774,0,146,
0.4333,-48.3,-201.3,-220.8,20.4,-42.6,-97.2,-14.4,26.1,-1407.9,-19.5,-2.4,1523.7,-345.3,1035.9,1667.4,240.6,0.9,2.4,-1275.0,-3656.7,-16.8,49.8,428.7,-189.3,0,780,0,147,
0.4367,-52.2,-192.6,-214.8,18.6,-56.4,-100.5,-17.4,23.4,-889.2,-32.7,2.7,1592.7,-345.0,1030.2,1672.2,264.0,1.8,2.7,-1271.1,-3668.4,-17.1,70.5,431.4,-187.5,0,786,0,148,
0.4400,-50.1,-193.8,-212.4,16.8,-54.6,-98.1,-8.7,21.6,-444.6,-26.1,0.3,1530.6,-340.5,1037.4,1688.4,280.8,1.8,2.7,-1264.2,-3701.4,-16.8,53.1,442.8,-186.6,0,792,0,149,
0.4433,-55.5,-200.1,-221.1,10.8,-46.8,-103.2,-10.8,17.4,-666.9,-20.1,-10.5,1462.5,-345.9,1027.5,1686.0,273.3,1.5,2.7,-1272.6,-3733.2,-17.1,51.6,441.0,-181.5,0,798,0,150,
0.4467,-54.9,-201.3,-217.5,16.5,-43.5,-94.8,-11.4,15.0,-1037.4,-39.3,-12.6,1487.1,-334.2,1022.7,1680.6,266.4,1.2,2.7,-1266.3,-3701.1,-17.4,48.9,439.2,-189.9,0,804,0,151,
0.4500,-57.3,-205.5,-226.5,19.2,-36.6,-88.5,-11.4,15.9,-1407.9,-34.2,-18.6,1503.6,-350.7,1020.3,1668.6,249.6,1.5,2.4,-1290.3,-3612.3,-16.5,59.7,435.3,-187.8,0,810,0,152,
0.4533,-54.3,-204.3,-231.6,0.6,-75.9,-113.1,-20.4,8.1,-963.3,-40.5,-30.6,1503.0,-341.4,1037.4,1703.7,284.4,0.9,2.4,-1299.0,-3676.8,-16.8,46.8,441.9,-197.4,0,816,0,153,
0.4567,-53.1,-205.2,-228.0,3.9,-79.5,-111.0,-22.2,10.5,-370.5,-37.2,-21.0,1539.6,-345.9,1035.3,1692.9,287.7,0.9,2.4,-1284.9,-3693.6,-16.8,34.8,439.2,-202.2,0,822,0,154,
0.4600,-54.3,-202.5,-225.6,11.1,-56.1,-99.0,-16.2,17.7,-518.7,-32.1,-21.0,1491.9,-342.3,1032.0,1694.7,285.3,0.9,2.4,-1293.9,-3694.8,-17.1,45.0,442.2,-187.5,0,828,0,155,
0.4633,-46.5,-193.5,-217.8,11.4,-46.8,-97.5,-16.2,21.0,-1111.5,-33.9,-12.6,1421.7,-331.5,1036.5,1688.1,274.2,0.9,2.4,-1280.4,-3682.8,-16.5,78.3,444.6,-183.3,0,834,0,156,
0.4667,-51.0,-199.8,-227.1,3.9,-69.9,-104.1,-13.2,15.9,-1333.8,-33.0,-27.9,1457.1,-334.2,1039.8,1685.7,262.8,1.2,2.1,-1312.2,-3656.4,-17.1,45.3,467.4,-198.6,0,840,0,157,
0.4700,-54.6,-198.6,-231.3,6.0,-43.2,-97.8,-19.5,11.7,-889.2,-42.6,-25.8,1475.7,-330.9,1044.6,1723.2,275.1,1.2,2.7,-1304.1,-3633.9,-16.8,60.3,459.0,-201.0,0,846,0,158,
0.4733,-54.0,-204.0,-235.8,1.2,-68.7,-116.4,-25.5,6.3,-222.3,-40.8,-26.7,1488.3,-339.6,1039.2,1718.7,286.5,1.2,2.4,-1314.9,-3619.5,-16.8,51.0,449.4,-192.9,0,852,0,159,
0.4767,-57.6,-209.7,-238.2,6.9,-57.0,-109.8,-24.6,10.5,-444.6,-45.0,-32.1,1388.7,-344.4,1034.7,1719.3,284.7,1.2,2.1,-1337.1,-3652.8,-16.8,54.0,444.9,-199.8,0,858,0,160,
0.4800,-58.2,-204.9,-236.7,7.5,-76.5,-120.3,-31.5,10.2,-741.0,-42.9,-27.9,1477.5,-335.7,1041.6,1710.0,274.2,1.2,2.4,-1335.3,-3614.4,-16.8,33.0,423.0,-213.6,0,864,0,161,
0.4833,-57.9,-208.2,-238.8,7.2,-58.8,-112.2,-32.7,14.1,-1185.6,-52.8,-31.5,1496.7,-345.6,1045.5,1703.4,243.0,1.5,2.4,-1380.0,-3607.8,-17.1,40.5,420.3,-211.2,0,870,0,162,
0.4867,-54.9,-195.0,-226.5,15.3,-59.4,-108.3,-25.5,21.3,-592.8,-33.0,-24.0,1515.9,-336.3,1038.9,1704.6,263.4,1.2,2.4,-1366.5,-3600.3,-17.1,23.4,423.6,-215.4,0,876,0,163,
0.4900,-59.1,-205.8,-231.0,12.3,-57.9,-114.9,-28.5,24.0,0.0,-47.7,-41.4,1510.8,-341.7,1033.5,1711.8,275.4,1.5,2.4,-1376.4,-3656.1,-16.8,30.6,421.5,-218.1,0,882,0,164,
0.4933,-60.3,-200.1,-228.6,17.1,-59.1,-112.2,-27.6,24.0,-148.2,-41.1,-31.5,1482.3,-339.0,1031.1,1708.5,265.8,1.2,2.4,-1377.3,-3721.5,-16.8,46.2,422.4,-212.1,0,888,0,165,
0.4967,-52.2,-196.8,-223.5,19.2,-65.7,-113.4,-27.9,31.5,-518.7,-32.4,-27.6,1494.3,-329.7,1032.6,1708.2,260.7,1.2,2.4,-1391.4,-3643.5,-17.1,52.2,413.4,-201.9,0,894,0,166,
0.5000,-53.4,-195.9,-223.2,21.3,-35.7,-110.4,-30.0,34.2,-963.3,-43.8,-37.2,1464.6,-334.8,1031.1,1705.2,253.5,1.2,2.4,-1418.4,-3797.7,-17.1,31.2,413.7,-200.1,0,900,0,167,
0.5033,-56.1,-189.9,-216.6,24.6,-61.5,-111.3,-28.5,35.7,-592.8,-39.3,-24.0,1470.0,-333.3,1032.0,1715.7,261.6,1.5,2.4,-1411.2,-3672.0,-16.8,37.2,419.1,-210.6,0,906,0,168,
0.5067,-62.4,-200.1,-219.9,24.0,-41.4,-112.8,-30.9,29.7,-74.1,-52.5,-35.4,1482.9,-346.8,1022.4,1724.1,272.7,0.9,2.4,-1412.1,-3621.0,-16.8,28.2,418.8,-217.8,0,912,0,169,
0.5100,-58.2,-194.7,-212.4,20.7,-71.1,-104.1,-23.4,27.9,-296.4,-43.2,-26.1,1532.4,-329.7,1028.4,1729.2,274.5,0.9,2.7,-1414.8,-3606.3,-16.8,20.4,426.3,-229.5,0,918,0,170,
0.5133,-63.3,-203.4,-223.5,20.7,-45.6,-110.4,-27.9,24.9,-592.8,-50.1,-42.0,1376.1,-346.2,1022.7,1720.2,265.2,1.2,2.4,-1444.2,-3677.7,-17.1,15.3,415.5,-213.3,0,924,0,171,
0.5167,-54.9,-190.2,-205.2,36.3,-29.1,-97.2,-25.2,34.8,-963.3,-51.6,-16.5,1398.0,-336.6,1029.3,1708.8,260.7,0.9,2.4,-1418.1,-3578.7,-17.1,8.7,408.3,-204.6,0,930,0,172,
0.5200,-55.2,-190.8,-218.7,36.6,-25.5,-100.8,-29.1,33.3,-666.9,-45.9,-38.7,1461.9,-343.2,1027.5,1708.2,269.4,0.9,2.4,-1482.6,-3638.1,-17.4,30.3,394.8,-214.8,0,936,0,173,
0.5233,-59.1,-204.0,-221.4,26.4,-51.6,-107.4,-29.4,25.2,-296.4,-71.4,-39.3,1440.0,-343.5,1023.0,1718.4,290.1,0.9,2.1,-1502.7,-3543.3,-17.1,6.9,413.4,-206.7,0,942,0,174,
0.5267,-60.9,-197.7,-222.6,22.8,-33.3,-82.8,-24.0,25.5,-370.5,-57.9,-47.4,1494.0,-346.5,1015.2,1708.2,279.6,0.9,3.0,-1555.8,-3663.0,-16.8,23.7,409.2,-195.6,0,948,0,175,
0.5300,-57.0,-190.5,-221.1,17.7,-81.3,-122.7,-32.4,15.6,-815.1,-57.0,-31.5,1509.3,-335.7,1024.5,1705.2,266.1,0.9,2.1,-1573.5,-3712.8,-16.8,36.9,407.4,-214.2,0,954,0,176,
0.5333,-58.2,-205.2,-227.7,15.3,-60.6,-128.4,-34.5,13.5,-1111.5,-56.7,-40.2,1514.1,-333.3,1027.5,1699.2,263.4,1.2,2.4,-1577.7,-3652.5,-16.8,15.9,423.9,-201.6,0,960,0,177,
0.5367,-56.4,-207.3,-239.7,15.3,-59.1,-112.2,-27.3,13.2,-889.2,-47.4,-43.5,1434.0,-336.6,1034.1,1716.6,275.1,0.9,2.4,-1588.2,-3732.3,-16.8,42.9,430.8,-201.6,0,966,0,178,
0.5400,-48.3,-203.1,-228.6,17.4,-57.9,-99.3,-21.0,16.5,-222.3,-36.6,-33.9,1512.9,-325.5,1040.4,1736.4,289.2,1.5,2.4,-1569.6,-3683.7,-16.8,32.7,444.3,-191.1,0,972,0,179,
0.5433,-49.5,-200.1,-232.2,10.5,-53.1,-119.4,-23.4,7.2,-444.6,-46.5,-45.6,1505.1,-320.7,1039.2,1720.5,280.5,1.2,2.7,-1566.6,-3701.7,-17.4,53.4,441.9,-179.1,0,978,0,180,
0.5467,-53.4,-184.8,-235.2,-4.2,-86.4,-129.9,-28.8,2.7,-741.0,-40.8,-48.9,1471.5,-322.8,1050.3,1734.0,281.7,1.2,2.4,-1563.6,-3746.7,-17.1,56.4,437.7,-193.8,0,984,0,181,
0.5500,-48.9,-200.1,-243.3,3.3,-67.2,-97.5,-25.2,7.5,-1111.5,-39.9,-46.5,1397.1,-324.3,1046.7,1695.0,267.6,1.2,2.7,-1579.2,-3702.3,-17.4,54.6,434.4,-211.5,0,990,0,182,
0.5533,-51.0,-213.9,-234.3,6.6,-63.0,-117.3,-24.9,6.3,-963.3,-38.1,-44.4,1447.5,-319.8,1042.2,1708.5,278.7,0.9,2.7,-1545.3,-3656.1,-16.8,39.6,439.8,-199.5,0,996,0,183,
0.5567,-49.2,-195.3,-247.5,1.8,-65.4,-88.5,-29.4,5.7,-370.5,-39.0,-43.2,1389.0,-321.6,1041.9,1720.2,256.5,1.2,2.1,-1562.7,-3678.0,-17.1,48.3,434.4,-207.6,0,1002,0,184,
0.5600,-54.6,-207.3,-242.4,1.5,-55.2,-131.1,-33.0,1.5,-666.9,-29.1,-39.0,1437.0,-311.1,1039.2,1708.2,260.1,0.9,2.7,-1587.9,-3716.1,-16.8,57.9,439.5,-183.0,0,1008,0,185,
0.5633,-52.5,-200.7,-222.3,8.7,-31.5,-111.9,-27.3,6.9,-815.1,-51.6,-39.0,1409.1,-318.3,1037.1,1698.9,253.8,1.2,2.1,-1549.8,-3752.4,-17.1,50.4,432.3,-187.8,0,1014,0,186,
0.5667,-49.8,-192.9,-227.1,9.3,-50.1,-125.1,-35.7,3.9,-1482.0,-32.4,-47.1,1415.4,-302.1,1044.3,1716.3,240.0,1.2,2.7,-1579.8,-3711.9,-16.8,37.2,418.5,-209.7,0,1020,0,187,
0.5700,-62.7,-205.8,-218.4,8.1,-45.6,-114.9,-33.6,0.3,-889.2,-49.8,-48.0,1381.5,-339.6,1025.4,1708.8,251.7,0.9,2.1,-1525.8,-3748.2,-17.1,45.6,431.1,-203.1,0,1026,0,188,
0.5733,-64.5,-205.2,-252.0,-11.7,-93.6,-121.5,-33.0,-4.5,-518.7,-29.4,-66.3,1450.2,-309.3,1035.0,1714.5,251.4,1.2,2.1,-1619.1,-3706.2,-17.1,54.9,439.5,-191.4,0,1032,0,189,
0.5767,-65.4,-219.6,-248.4,-9.0,-68.1,-120.0,-30.6,-3.3,-592.8,-43.8,-51.0,1507.5,-315.3,1035.0,1717.8,241.2,1.2,2.1,-1590.0,-3755.4,-16.8,52.2,442.5,-199.8,0,1038,0,190,
0.5800,-63.0,-210.6,-240.9,-7.5,-79.2,-88.5,-33.6,2.7,-815.1,-40.5,-58.8,1488.0,-320.7,1030.5,1712.4,237.6,0.9,2.4,-1604.7,-3789.0,-16.8,26.7,422.7,-220.2,0,1044,0,191,
0.5833,-72.6,-219.3,-235.2,-8.7,-74.7,-144.0,-40.8,-5.7,-1333.8,-52.2,-44.1,1479.6,-335.1,1009.8,1691.4,222.3,1.2,2.1,-1567.5,-3694.5,-16.8,36.6,420.6,-187.2,0,1050,0,192,
0.5867,-61.2,-194.1,-240.3,-9.3,-71.1,-105.6,-31.8,-0.9,-1037.4,-45.9,-65.7,1374.9,-324.6,1025.7,1705.8,219.0,0.9,2.4,-1632.3,-3817.8,-17.1,66.0,433.8,-201.6,0,1056,0,193,
0.5900,-64.5,-200.1,-218.4,13.8,-32.7,-107.4,-29.7,9.6,-518.7,-58.8,-24.0,1487.7,-320.1,1029.6,1729.5,232.5,1.2,2.4,-1589.1,-3759.0,-16.8,67.5,421.8,-174.9,0,1062,0,194,
0.5933,-65.7,-212.4,-239.1,5.4,-56.4,-114.9,-32.7,4.5,-518.7,-52.5,-59.4,1480.2,-313.8,1027.2,1721.4,242.1,1.2,2.7,-1639.2,-3733.2,-17.1,34.8,416.7,-201.6,0,1068,0,195,
0.5967,-67.2,-209.7,-228.6,1.8,-67.2,-111.6,-27.3,5.7,-889.2,-50.7,-44.4,1372.2,-330.6,1023.3,1726.5,226.5,1.2,2.4,-1580.7,-3880.2,-17.1,36.0,420.6,-186.6,0,1074,0,196,
0.6000,-68.7,-213.6,-240.3,9.3,-27.3,-106.5,-33.3,2.7,-1407.9,-42.6,-68.4,1362.3,-321.3,1016.7,1714.8,225.0,0.9,2.4,-1666.8,-3821.7,-16.8,34.2,417.3,-206.4,0,1080,0,197,
0.6033,-69.0,-219.3,-233.1,17.4,-25.5,-87.9,-28.2,9.3,-963.3,-52.8,-42.9,1385.4,-338.7,1022.1,1748.4,238.2,1.2,2.4,-1559.1,-3901.8,-16.8,29.7,413.7,-206.4,0,1086,0,198,
0.6067,-62.1,-204.6,-216.0,13.5,-46.5,-105.9,-33.6,5.1,-592.8,-64.2,-40.2,1463.7,-337.2,1024.5,1756.5,236.1,1.2,2.4,-1578.3,-3777.0,-17.1,31.8,428.4,-178.8,0,1092,0,199,
0.6100,-52.8,-173.7,-227.7,15.9,-43.8,-107.7,-31.2,7.2,-666.9,-49.5,-57.6,1512.9,-350.4,1031.1,1752.9,244.8,1.2,2.4,-1583.1,-3781.8,-16.8,39.3,425.4,-198.3,0,1098,0,200,
0.6133,-57.6,-189.3,-222.9,14.4,-74.1,-92.4,-26.7,9.6,-1037.4,-49.8,-61.2,1509.9,-334.2,1022.7,1758.3,245.1,0.9,3.0,-1582.2,-3754.2,-17.1,49.8,431.1,-194.1,0,1104,0,201,
0.6167,-60.9,-226.5,-225.6,17.1,-52.5,-118.2,-28.5,6.6,-1407.9,-24.6,-29.7,1535.7,-293.4,1038.3,1748.7,244.2,1.2,2.4,-1509.9,-3790.5,-16.8,60.9,443.1,-179.1,0,1110,0,202,
0.6200,-50.7,-159.9,-177.6,27.0,-70.2,-90.3,-30.6,17.7,-963.3,-57.6,-27.9,1526.1,-326.1,1034.4,1756.8,249.0,1.2,2.7,-1510.8,-3795.3,-16.8,41.4,441.3,-198.0,0,1116,0,203,
0.6233,-47.7,-197.1,-226.8,18.9,-40.8,-88.8,-24.6,11.7,-592.8,-30.6,-30.6,1530.0,-298.8,1059.0,1772.4,251.4,1.2,2.4,-1484.4,-3776.4,-16.8,46.2,449.1,-179.1,0,1122,0,204,
0.6267,-50.1,-157.8,-211.5,7.5,-70.5,-117.9,-32.1,6.6,-666.9,-70.5,-43.8,1420.5,-310.5,1036.2,1779.0,253.8,1.5,2.4,-1550.7,-3976.8,-16.8,56.4,444.6,-192.6,0,1128,0,205,
0.6300,-72.0,-240.9,-242.1,7.2,-58.5,-98.4,-23.1,-0.9,-963.3,-36.0,-59.4,1419.9,-330.9,1030.2,1769.1,255.3,1.2,2.7,-1589.4,-3765.3,-16.8,60.0,448.2,-176.1,0,1134,0,206,
0.6333,-65.7,-202.8,-232.2,9.3,-49.2,-104.4,-28.8,6.3,-1333.8,-42.3,-49.8,1451.7,-327.3,1034.1,1746.6,241.8,0.9,2.7,-1581.9,-3864.6,-16.8,36.0,444.9,-190.2,0,1140,0,207,
0.6367,-66.9,-189.6,-229.8,1.2,-63.3,-110.1,-26.1,6.6,-1037.4,-67.8,-63.0,1439.7,-351.9,1020.9,1776.6,248.1,1.5,2.7,-1592.7,-3843.9,-17.1,45.3,455.1,-181.8,0,1146,0,208,
0.6400,-59.4,-195.9,-207.0,8.1,-51.9,-106.2,-27.0,9.3,-518.7,-53.7,-57.6,1406.7,-339.3,1048.5,1777.5,257.4,1.2,2.7,-1569.6,-3889.2,-16.8,43.8,447.6,-197.7,0,1152,0,209,
0.6433,-57.3,-182.4,-206.1,12.6,-4.8,-91.8,-19.2,12.3,-592.8,-67.2,-55.5,1368.3,-373.8,1029.3,1774.8,253.8,1.2,2.7,-1617.6,-3877.8,-16.8,34.8,455.7,-211.2,0,1158,0,210,
0.6467,-76.8,-220.8,-212.1,2.1,-45.0,-73.5,-19.8,6.6,-741.0,-37.2,-50.1,1400.7,-330.6,1020.3,1763.4,273.6,1.2,2.7,-1629.3,-3926.1,-16.8,50.1,447.9,-177.9,0,1164,0,211,
0.6500,-61.2,-169.5,-201.6,4.2,-74.1,-120.3,-27.0,6.0,-1333.8,-72.3,-42.6,1440.9,-370.2,1017.9,1758.6,255.6,1.2,2.4,-1617.0,-3811.5,-17.1,24.6,444.6,-183.9,0,1170,0,212,
0.6533,-73.8,-238.2,-243.9,-8.1,-61.2,-93.0,-18.3,-3.3,-815.1,-52.5,-68.4,1419.9,-345.9,1029.9,1766.7,260.4,1.2,2.7,-1710.3,-3786.6,-16.8,48.0,470.1,-179.7,0,1176,0,213,
0.6567,-56.4,-177.0,-209.4,1.5,-62.7,-110.1,-30.9,6.3,-518.7,-91.8,-52.5,1420.5,-375.0,1013.7,1783.5,259.2,0.9,2.4,-1672.2,-3736.5,-16.8,34.2,455.4,-199.5,0,1182,0,214,
0.6600,-92.7,-258.9,-237.3,-8.7,-66.0,-98.1,-27.3,-10.2,-592.8,-28.5,-61.5,1508.7,-342.0,995.7,1775.1,266.4,1.2,2.4,-1718.1,-3748.8,-16.5,57.9,449.1,-177.9,0,1188,0,215,
0.6633,-65.1,-141.0,-194.4,6.0,-68.1,-113.7,-32.7,3.6,-815.1,-87.3,-40.8,1479.6,-408.3,1006.5,1773.6,248.4,1.2,2.4,-1721.7,-3781.8,-17.1,39.0,436.8,-205.5,0,1194,0,216,
0.6667,-85.8,-249.6,-253.5,-18.3,-81.9,-101.4,-30.3,-9.9,-1407.9,-50.4,-64.2,1485.0,-378.6,1008.3,1761.0,251.7,1.8,2.4,-1876.8,-3723.9,-17.1,36.0,453.3,-195.9,0,1200,0,217,
0.6700,-74.1,-203.4,-197.4,-0.6,-71.4,-107.4,-33.0,-1.8,-1259.7,-62.7,-31.2,1460.7,-337.8,1013.1,1769.7,254.1,1.2,2.4,-1781.7,-3759.9,-16.8,30.0,446.7,-206.7,0,1206,0,218,
0.6733,-79.5,-223.2,-271.8,-24.6,-81.3,-114.3,-27.3,-11.4,-815.1,-46.2,-78.3,1409.7,-423.6,1017.3,1782.6,264.3,1.2,2.4,-1959.6,-3723.3,-17.1,49.5,461.4,-186.6,0,1212,0,219,
0.6767,-66.6,-111.6,-128.7,9.0,-83.4,-114.0,-30.6,9.0,-889.2,-122.7,-54.9,1401.9,-397.8,997.2,1781.1,238.2,0.9,2.7,-1892.1,-3778.2,-16.8,27.0,451.8,-204.9,0,1218,0,220,
0.6800,-86.1,-264.9,-302.7,-31.8,-62.4,-119.1,-29.1,-25.5,-1037.4,-27.0,-59.1,1403.1,-387.3,1023.6,1777.5,240.9,1.2,2.4,-1914.9,-3720.0,-16.8,46.2,456.3,-199.2,0,1224,0,221,
0.6833,-77.4,-215.7,-235.5,-19.5,-67.5,-110.7,-27.0,-15.3,-1482.0,-66.3,-62.4,1344.6,-342.0,1017.3,1773.6,238.2,1.2,2.4,-1922.7,-3778.8,-17.1,36.6,449.1,-194.1,0,1230,0,222,
0.6867,-81.0,-221.7,-245.1,-10.8,-40.5,-107.4,-27.3,-13.8,-1185.6,-66.3,-45.3,1426.8,-373.8,1019.7,1794.0,238.8,0.9,2.1,-1912.2,-3698.7,-16.8,39.0,460.5,-195.0,0,1236,0,223,
0.6900,-54.3,-104.1,-179.1,7.8,-40.2,-115.2,-25.2,2.1,-815.1,-84.9,-45.3,1378.8,-392.7,1025.7,1791.0,241.2,1.5,2.4,-1811.1,-3908.7,-16.8,53.7,447.9,-192.0,0,1242,0,224,
0.6933,-82.8,-252.0,-261.3,-16.2,-50.1,-93.6,-21.6,-12.9,-815.1,-36.9,-60.6,1376.1,-385.2,1021.8,1786.5,250.2,1.2,2.4,-2072.4,-3702.0,-17.1,62.1,459.0,-187.8,0,1248,0,225,
0.6967,-54.9,-165.3,-213.0,-3.9,-50.7,-90.6,-24.0,-1.5,-1037.4,-84.6,-41.1,1462.2,-388.8,1024.5,1777.2,241.8,1.2,2.1,-1937.4,-3693.3,-16.8,50.4,440.4,-191.1,0,1254,0,226,
0.7000,-71.1,-219.6,-209.4,2.1,-19.2,-99.6,-15.6,-0.9,-1482.0,-40.8,-51.9,1387.2,-355.5,1026.6,1779.6,238.5,0.9,2.4,-2880.3,-3736.5,-16.8,50.7,452.1,-182.4,0,1260,0,227,
0.7033,-59.7,-161.7,-230.4,-0.9,-21.0,-82.2,-12.9,3.9,-1333.8,-65.4,-38.1,1407.6,-337.8,1040.7,1783.2,251.4,1.5,2.7,-3295.8,-3718.5,-16.8,49.5,457.5,-187.5,0,1266,0,228,
0.7067,-79.2,-233.4,-197.7,-1.2,-82.2,-110.4,-15.9,-0.3,-963.3,-22.5,-14.1,1548.0,-309.9,1006.8,1808.7,264.9,1.2,2.1,-3570.3,-3766.8,-17.1,75.0,459.6,-173.7,0,1272,0,229,
0.7100,-43.5,-148.5,-167.7,17.1,-30.9,-90.9,-17.7,17.1,-889.2,-92.1,-18.0,1430.1,-279.6,1068.3,1795.2,255.0,1.5,2.4,-3754.2,-3698.4,-17.1,57.9,447.6,-189.9,0,1278,0,230,
0.7133,-66.0,-213.3,-192.0,15.6,-52.5,-92.7,-14.1,9.6,-1037.4,-36.0,-8.4,1414.5,-329.4,1023.3,1796.4,260.1,1.5,2.4,-3859.2,-3667.2,-16.8,60.0,450.6,-181.2,0,1284,0,231,
0.7167,-68.7,-207.6,-215.1,9.3,-23.4,-61.5,-9.3,10.8,-1482.0,-54.0,-36.0,1482.3,-298.2,1035.9,1763.4,239.7,1.2,2.7,-4004.4,-3735.0,-17.1,63.9,442.2,-183.3,0,1290,0,232,
0.7200,-63.9,-151.5,-157.8,6.0,-72.9,-126.6,-21.9,5.7,-1259.7,-62.4,-34.5,1513.5,-282.6,1024.5,1776.0,244.5,1.2,2.4,-4228.8,-3731.1,-16.8,53.4,444.6,-173.4,0,1296,0,233,
0.7233,-80.1,-204.9,-213.6,4.8,-34.8,-75.0,-18.6,3.0,-741.0,-54.9,-52.2,1525.2,-317.1,1010.7,1786.5,254.1,1.2,2.4,-4438.5,-3652.8,-16.8,52.2,447.0,-190.8,0,1302,0,234,
0.7267,-74.4,-234.3,-201.3,-2.1,-74.1,-116.4,-17.7,0.6,-889.2,-46.2,-33.9,1422.0,-270.9,1020.0,1788.3,262.2,0.9,2.4,-4375.8,-3716.7,-16.8,75.3,445.2,-174.3,0,1308,0,235,
0.7300,-75.6,-218.7,-206.7,-0.3,-57.0,-114.0,-22.5,-0.3,-1037.4,-59.1,-21.0,1465.8,-295.5,1015.2,1788.6,248.4,1.2,2.7,-4436.7,-3711.0,-17.1,61.5,437.4,-192.0,0,1314,0,236,
0.7333,-56.7,-111.3,-120.0,19.5,-63.3,-120.6,-32.7,13.5,-1704.3,-118.8,-29.4,1440.0,-329.7,1013.1,1754.4,232.8,1.2,2.1,-4564.8,-3760.8,-16.5,42.0,429.6,-183.6,0,1320,0,237,
0.7367,-86.1,-241.8,-244.8,-12.6,-59.1,-98.4,-27.6,-6.9,-1407.9,-67.2,-39.9,1405.2,-286.5,1008.3,1781.4,262.5,1.2,2.4,-4597.5,-3741.9,-17.1,60.6,442.8,-195.0,0,1326,0,238,
0.7400,-77.1,-197.7,-210.3,-8.4,-53.4,-129.3,-33.9,-6.0,-1037.4,-82.8,-88.5,1370.1,-315.6,1005.3,1788.0,267.3,0.9,2.4,-4658.7,-3788.7,-16.8,39.3,433.5,-195.6,0,1332,0,239,
0.7433,-86.7,-233.7,-225.6,-21.3,-73.5,-127.5,-33.6,-11.1,-1037.4,-120.3,-101.7,1314.9,-282.6,996.9,1768.8,264.0,0.9,2.4,-4717.8,-3835.5,-17.1,33.3,427.2,-204.9,0,1338,0,240,
0.7467,-77.1,-207.3,-209.1,-21.6,-70.8,-127.2,-28.8,-3.3,-1111.5,-100.8,-129.0,1302.3,-393.3,984.0,1765.5,263.7,1.2,2.4,-4767.9,-3837.9,-17.1,39.6,422.1,-207.9,0,1344,0,241,
0.7500,-53.1,-118.8,-179.4,-1.5,-64.8,-116.4,-25.5,7.8,-1630.2,-143.1,-64.8,1369.2,-340.8,1022.7,1762.2,242.1,1.2,2.1,-4827.3,-3827.4,-16.8,14.7,414.6,-213.3,0,1350,0,242,
0.7533,-78.0,-203.7,-96.9,27.3,-51.6,-107.7,-18.9,13.5,-1333.8,-79.8,-30.9,1466.4,-255.0,1004.7,1770.3,269.4,0.9,2.1,-4663.5,-3769.8,-17.1,37.5,433.2,-192.3,0,1356,0,243,
0.7567,-69.0,-173.4,-215.1,-0.9,-72.9,-113.1,-22.2,3.9,-741.0,-79.8,-10.2,1514.1,-300.3,1022.4,1780.5,283.8,1.2,2.4,-4683.6,-3721.8,-16.8,68.4,435.3,-190.2,0,1362,0,244,
0.7600,-81.3,-222.6,-157.8,19.8,-37.8,-94.8,-16.8,13.2,-889.2,-69.3,-45.3,1444.8,-251.1,1006.2,1781.1,279.3,1.2,2.1,-4730.1,-3801.3,-17.1,53.1,434.7,-203.1,0,1368,0,245,
0.7633,-65.4,-146.7,-186.6,3.3,-67.2,-110.7,-21.9,9.9,-1037.4,-77.1,-54.0,1443.6,-258.3,1023.0,1784.7,265.8,0.9,2.4,-4671.6,-3804.9,-17.1,38.7,432.0,-203.1,0,1374,0,246,
0.7667,-87.9,-237.9,-271.8,-24.0,-93.9,-125.4,-23.4,-11.7,-1482.0,-39.9,-22.5,1465.5,-252.9,1022.4,1776.3,265.5,1.2,2.7,-4562.7,-3834.3,-17.1,62.1,431.1,-195.6,0,1380,0,247,
0.7700,-71.7,-151.8,-170.7,10.5,-52.5,-111.9,-20.4,12.3,-1407.9,-63.3,-42.0,1459.8,-297.3,1012.5,1754.7,264.3,1.2,2.4,-4646.1,-3786.3,-17.1,33.0,426.3,-205.8,0,1386,0,248,
0.7733,-80.1,-236.4,-205.5,-9.9,-75.3,-111.0,-18.9,0.9,-741.0,-29.7,-49.8,1427.7,-233.7,1017.6,1776.0,287.1,1.2,2.7,-4628.4,-3883.8,-16.8,85.8,442.2,-196.8,0,1392,0,249,
0.7767,-62.4,-147.6,-176.1,3.3,-54.0,-125.7,-26.7,8.4,-815.1,-76.8,-32.1,1414.5,-338.4,1019.4,1760.4,278.4,1.2,2.4,-4555.2,-3848.4,-16.8,48.9,429.9,-219.3,0,1398,0,250,
0.7800,-73.5,-181.8,-192.6,4.8,-51.6,-73.2,-18.9,10.8,-1111.5,-66.6,-41.7,1413.3,-235.8,1023.9,1775.4,265.5,0.9,2.1,-4571.4,-3876.3,-16.8,47.7,423.3,-207.0,0,1404,0,251,
0.7833,-65.7,-123.0,-152.4,13.8,-72.9,-103.8,-24.3,15.6,-1482.0,-78.6,-29.4,1399.5,-269.1,1031.7,1753.2,256.5,1.2,2.7,-4595.4,-3888.6,-17.1,42.3,420.6,-198.6,0,1410,0,252,
0.7867,-83.7,-252.0,-250.5,-26.1,-90.3,-142.8,-25.8,-12.0,-1333.8,-1.2,-64.8,1390.8,-176.4,1031.7,1796.7,283.2,1.2,2.4,-4671.0,-3886.8,-17.1,75.9,439.2,-190.2,0,1416,0,253,
0.7900,-53.1,-143.4,-116.4,12.9,-87.0,-124.2,-28.5,11.7,-889.2,-69.6,-15.3,1401.6,-310.2,1043.1,1773.3,267.0,1.5,2.4,-4468.5,-3903.0,-16.8,41.1,420.3,-207.9,0,1422,0,254,
0.7933,-74.7,-183.3,-155.1,10.5,-36.3,-114.6,-31.5,3.3,-889.2,-26.7,14.4,1379.4,-189.6,1036.5,1789.8,270.3,1.2,2.4,-4404.9,-3827.7,-16.8,44.4,420.0,-207.6,0,1428,0,255,
0.7967,-70.2,-157.8,-104.4,29.1,-23.7,-88.2,-30.9,15.3,-1111.5,-64.5,-27.3,1326.3,-244.5,1027.2,1781.4,255.3,1.2,2.4,-4609.5,-3870.6,-17.1,22.5,412.2,-227.1,0,1434,0,0,
0.8000,-68.4,-197.1,-249.6,-27.6,-94.2,-126.9,-36.9,-9.0,-1630.2,5.4,-64.2,1367.1,-207.9,1054.2,1786.2,250.8,0.9,2.7,-4742.1,-3927.3,-16.8,66.3,420.0,-206.7,0,1440,0,1,
0.8033,-61.2,-141.6,-154.8,-3.6,-92.7,-147.3,-40.2,0.6,-1407.9,-32.4,-54.0,1388.1,-220.2,1037.1,1784.1,248.1,1.2,2.4,-4516.8,-3867.9,-16.8,50.4,413.1,-208.2,0,1446,0,2,
0.8067,-52.2,-145.5,-197.7,-8.1,-66.6,-117.3,-37.5,-1.8,-889.2,-23.4,-55.2,1415.1,-210.3,1086.9,1796.4,255.3,0.9,2.1,-4584.6,-3846.6,-16.8,41.1,410.7,-221.4,0,1452,0,3,
0.8100,-63.0,-143.7,-138.9,6.3,-71.7,-129.3,-35.1,5.4,-741.0,-34.5,-23.1,1412.7,-252.0,1024.8,1780.8,260.7,1.2,2.4,-4415.4,-3853.8,-16.8,47.7,410.4,-216.6,0,1458,0,4,
0.8133,-57.3,-180.9,-194.1,-32.1,-134.7,-134.7,-44.1,-13.2,-1037.4,-10.5,-20.1,1383.0,-209.4,1083.0,1802.4,263.1,0.9,2.7,-4413.0,-3943.8,-16.8,54.9,406.2,-216.3,0,1464,0,5,
0.8167,-71.4,-177.3,-156.3,-1.8,-71.1,-134.7,-41.4,-1.8,-1482.0,-19.2,-17.1,1346.4,-147.6,1024.5,1769.4,232.2,1.2,2.7,-4458.9,-3792.3,-16.8,47.7,396.9,-220.5,0,1470,0,6,
0.8200,-56.4,-152.7,-169.2,-12.6,-84.0,-119.7,-38.1,-6.3,-1407.9,-19.5,-48.9,1291.5,-230.4,1049.7,1770.6,245.4,0.9,2.7,-4440.3,-3903.6,-17.1,17.7,413.4,-230.7,0,1476,0,7,
0.8233,-76.2,-191.4,-156.9,-24.3,-135.6,-166.8,-45.6,-17.1,-963.3,-17.7,-22.8,1296.9,-171.9,1036.5,1790.4,261.3,1.2,2.4,-4248.6,-3969.0,-16.8,35.1,409.8,-229.5,0,1482,0,8,
0.8267,-76.8,-211.8,-231.0,-35.7,-98.1,-153.0,-37.8,-22.8,-1111.5,4.2,-66.0,1382.7,-182.1,1058.1,1785.0,278.7,1.2,2.7,-4503.9,-3878.4,-16.8,33.0,409.2,-241.2,0,1488,0,9,
0.8300,-56.7,-99.0,-125.1,-21.0,-131.7,-154.5,-38.4,-10.8,-889.2,-42.3,-58.5,1392.0,-279.0,1029.6,1774.8,254.4,1.5,2.1,-4407.0,-3930.0,-16.8,33.0,405.3,-231.9,0,1494,0,10,
0.8333,-71.1,-196.2,-230.1,-30.6,-94.5,-129.3,-32.4,-13.2,-1556.1,-14.1,-73.2,1326.3,-138.6,1066.5,1765.8,262.5,1.2,2.4,-4455.3,-3947.1,-16.8,33.0,406.5,-248.4,0,1500,0,11,
0.8367,-57.6,-144.3,-167.1,-24.0,-120.0,-135.6,-34.8,-7.8,-1333.8,1.2,-97.5,1291.2,-245.4,1046.7,1764.0,270.3,1.5,2.4,-4563.3,-3987.9,-17.1,29.4,423.0,-235.5,0,1506,0,12,
0.8400,-64.2,-166.5,-165.9,-23.1,-127.2,-164.7,-37.2,-8.7,-889.2,-6.0,-37.2,1360.2,-130.5,1053.6,1787.4,282.9,1.2,2.7,-4267.8,-3942.6,-16.8,54.0,429.6,-214.8,0,1512,0,13,
0.8433,-41.7,-94.2,-90.6,7.5,-103.8,-129.3,-35.1,7.8,-889.2,-43.2,-9.0,1367.7,-243.3,1077.0,1773.3,268.2,0.9,2.4,-4116.9,-3923.1,-16.8,7.8,412.8,-241.8,0,1518,0,14,
0.8467,-42.0,-125.1,-184.5,-23.1,-100.2,-148.8,-39.0,1.2,-963.3,-0.9,-101.4,1328.1,-141.3,1092.3,1780.8,280.8,1.2,2.7,-4557.0,-4017.3,-17.1,63.6,417.3,-235.5,0,1524,0,15,
0.8500,-70.2,-207.3,-203.4,-12.3,-105.0,-137.1,-28.2,-2.1,-1259.7,26.1,-35.1,1337.4,-200.7,1029.6,1762.5,275.7,0.9,2.4,-4367.1,-3909.6,-16.8,51.0,429.6,-214.2,0,1530,0,16,
0.8533,-54.0,-140.4,-188.1,-21.9,-120.0,-144.0,-41.7,-1.2,-1333.8,9.9,-84.3,1289.4,-159.3,1071.9,1770.6,267.0,1.2,2.4,-4417.5,-3957.0,-17.1,49.2,418.2,-230.1,0,1536,0,17,
0.8567,-75.6,-202.5,-136.8,0.9,-97.5,-142.8,-39.0,1.5,-666.9,24.3,-26.4,1339.5,-159.9,1037.4,1777.5,272.7,1.2,2.1,-4203.6,-3903.0,-17.1,46.5,417.3,-214.5,0,1542,0,18,
0.8600,-69.3,-164.1,-135.6,-2.1,-99.9,-151.5,-42.9,4.5,-815.1,-18.3,-55.2,1308.9,-145.5,1045.2,1767.6,262.2,0.9,2.7,-4402.2,-3951.0,-16.8,32.4,403.5,-232.8,0,1548,0,19,
0.8633,-55.5,-103.8,-232.8,-28.2,-125.1,-135.9,-42.6,3.9,-1037.4,-12.3,-110.4,1289.4,-192.9,1053.9,1764.3,260.1,1.2,2.4,-4347.9,-3968.1,-17.1,5.7,413.1,-252.9,0,1554,0,20,
0.8667,-68.1,-214.8,-169.5,-27.9,-152.4,-170.7,-48.0,-1.8,-1482.0,24.6,-78.6,1217.7,-141.6,1059.0,1751.4,250.8,1.2,2.7,-4224.6,-4016.7,-17.1,35.4,403.2,-243.3,0,1560,0,21,
0.8700,-51.6,-113.1,-128.7,0.9,-94.5,-154.5,-43.5,14.1,-1259.7,-45.0,-56.1,1269.9,-169.2,1052.7,1758.6,241.8,1.2,2.1,-4121.4,-3898.8,-16.8,5.4,399.3,-245.4,0,1566,0,22,
0.8733,-42.9,-116.1,-105.9,3.3,-92.4,-140.7,-49.5,12.9,-889.2,-31.8,-65.4,1211.1,-170.1,1061.7,1773.3,245.1,0.9,2.4,-4160.7,-4015.5,-16.8,5.1,397.5,-259.5,0,1572,0,23,
0.8767,-57.0,-117.3,-166.8,-13.5,-108.0,-131.1,-46.2,11.7,-889.2,-10.5,-88.8,1248.9,-230.7,1038.6,1772.1,260.7,1.2,2.7,-4245.0,-3990.9,-17.1,21.0,402.3,-257.7,0,1578,0,24,
0.8800,-61.5,-194.7,-216.9,-35.7,-138.0,-154.2,-50.7,-12.9,-963.3,-10.5,-110.1,1217.1,-156.6,1060.8,1796.4,263.1,1.2,2.4,-4289.7,-3968.1,-16.5,22.2,396.0,-242.4,0,1584,0,25,
0.8833,-59.1,-152.4,-136.8,-6.0,-109.8,-160.2,-52.5,4.8,-1556.1,-39.6,-101.7,1261.8,-149.1,1048.8,1773.0,243.3,1.2,2.4,-4404.0,-3954.0,-16.8,2.4,381.9,-256.5,0,1590,0,26,
0.8867,-54.3,-150.3,-132.3,-6.9,-123.6,-154.8,-47.1,3.3,-1333.8,-8.4,-82.5,1272.9,-211.2,1050.6,1780.8,243.0,1.2,2.4,-4166.1,-4007.4,-17.1,1.2,394.5,-255.0,0,1596,0,27,
0.8900,-66.0,-172.5,-198.0,-18.3,-107.1,-145.2,-42.6,-3.3,-1111.5,-36.6,-93.9,1308.0,-178.5,1043.4,1788.3,262.8,1.2,2.7,-4314.0,-3951.3,-16.8,7.8,399.9,-272.1,0,1602,0,28,
0.8933,-37.5,-116.1,-119.7,6.6,-90.0,-154.8,-48.9,7.8,-963.3,-23.4,-67.2,1323.9,-250.2,1085.1,1779.6,266.4,1.2,2.4,-4149.6,-3870.6,-17.1,-10.2,388.5,-255.6,0,1608,0,29,
0.8967,-66.0,-187.5,-120.6,-7.8,-121.8,-148.2,-42.6,1.5,-1111.5,-10.5,-81.6,1303.5,-130.8,1030.2,1784.4,266.1,1.2,2.4,-4182.0,-3990.9,-17.1,-6.3,393.6,-251.1,0,1614,0,30,
0.9000,-63.9,-193.5,-257.4,-18.9,-82.2,-121.5,-38.4,-2.7,-1630.2,34.8,-65.7,1371.6,-149.4,1062.3,1771.2,249.9,1.2,2.4,-4122.9,-3833.1,-16.8,14.7,410.7,-245.1,0,1620,0,31,
0.9033,-48.9,-100.5,-75.9,-1.2,-135.9,-136.2,-33.9,15.0,-1407.9,-39.9,-90.9,1312.8,-199.2,1054.5,1783.8,261.6,1.2,2.4,-4204.8,-4048.5,-17.1,25.8,410.4,-255.9,0,1626,0,32,
0.9067,-55.2,-165.9,-216.9,-41.7,-138.3,-163.8,-43.2,-7.2,-963.3,38.7,-121.2,1279.8,-184.2,1062.3,1801.8,284.7,1.2,2.4,-4177.5,-4018.5,-17.1,42.9,426.6,-229.8,0,1632,0,33,
0.9100,-37.8,-103.8,-174.0,-12.3,-93.6,-141.6,-43.2,2.7,-963.3,-32.4,-70.2,1176.3,-237.0,1061.7,1801.2,259.8,0.9,2.4,-3966.9,-4092.6,-17.1,3.0,412.8,-242.4,0,1638,0,34,
0.9133,-69.0,-182.1,-168.9,-20.7,-134.4,-182.1,-48.9,-8.7,-1185.6,-8.7,-72.6,1193.7,-131.4,1051.2,1802.7,275.4,1.2,2.4,-3927.6,-4083.6,-16.8,32.1,411.0,-231.9,0,1644,0,35,
0.9167,-60.3,-181.5,-210.9,-32.7,-122.1,-141.9,-38.4,-4.8,-1556.1,-9.6,-111.0,1246.5,-153.6,1057.2,1785.6,267.9,1.2,2.4,-4077.3,-4059.6,-17.1,28.2,414.9,-237.3,0,1650,0,36,
0.9200,-64.2,-173.7,-90.3,-3.0,-89.1,-144.0,-42.6,6.3,-1333.8,5.1,-89.4,1249.8,-144.3,1050.9,1792.8,265.8,0.6,2.1,-4054.8,-3966.3,-16.8,4.8,409.2,-243.3,0,1656,0,37,
0.9233,-56.4,-137.1,-189.9,-25.5,-109.8,-143.1,-41.4,-3.3,-963.3,-34.2,-107.4,1276.5,-250.5,1043.1,1798.5,279.6,0.9,2.4,-4020.0,-4079.7,-16.5,16.8,407.7,-247.5,0,1662,0,38,
0.9267,-61.8,-156.3,-168.0,-20.7,-123.6,-160.2,-49.8,-1.8,-889.2,-31.2,-95.1,1338.9,-179.4,1048.2,1789.8,254.4,1.2,2.4,-3964.8,-4020.0,-16.5,1.5,400.5,-235.8,0,1668,0,39,
0.9300,-61.5,-166.2,-228.6,-36.9,-120.9,-129.0,-39.6,-7.5,-963.3,-26.4,-114.0,1310.7,-249.9,1032.6,1809.0,273.6,1.2,2.4,-4088.7,-4048.8,-17.1,8.4,414.3,-256.5,0,1674,0,40,
0.9333,-59.1,-144.9,-108.9,-14.1,-128.1,-178.5,-56.7,-3.9,-1556.1,-32.4,-72.3,1274.4,-182.7,1064.4,1779.9,254.7,1.5,2.4,-3803.4,-4065.9,-16.8,13.8,395.4,-228.0,0,1680,0,41,
0.9367,-72.0,-127.5,-170.7,-26.4,-123.6,-124.2,-48.6,-0.9,-1333.8,-25.8,-123.3,1299.6,-254.4,1018.8,1782.0,272.4,1.2,2.4,-4057.5,-4112.7,-17.1,6.0,403.5,-275.1,0,1686,0,42,
0.9400,-86.4,-279.3,-238.5,-44.7,-156.0,-143.7,-44.1,-24.0,-963.3,33.3,-89.1,1329.6,-134.7,1064.4,1803.6,291.9,1.2,2.4,-3915.3,-4078.5,-16.8,45.9,414.6,-242.1,0,1692,0,43,
0.9433,-61.2,-120.0,-156.3,-6.3,-93.9,-178.5,-47.1,0.9,-815.1,-28.8,-84.6,1338.6,-183.3,1046.7,1802.4,263.7,1.2,2.4,-3938.4,-4092.6,-16.8,31.5,409.8,-219.6,0,1698,0,44,
0.9467,-67.2,-166.8,-162.0,-16.2,-123.9,-158.1,-38.7,-9.9,-963.3,6.0,-48.6,1287.3,-176.4,1047.9,1830.0,278.1,0.9,2.4,-3685.2,-4139.7,-16.8,32.7,413.7,-238.2,0,1704,0,45,
0.9500,-60.3,-130.8,-151.2,-13.8,-116.4,-136.2,-39.6,0.9,-1556.1,-49.8,-131.4,1293.3,-180.0,1049.4,1799.7,266.1,1.2,2.4,-4088.7,-4135.2,-17.1,12.3,408.6,-235.2,0,1710,0,46,
0.9533,-74.4,-219.0,-241.2,-36.9,-129.3,-175.8,-45.6,-20.7,-1482.0,21.9,-99.0,1290.3,-196.5,1055.1,1831.8,281.7,1.2,2.4,-3873.9,-4171.5,-17.1,36.0,420.6,-248.1,0,1716,0,47,
0.9567,-57.9,-136.2,-146.1,-21.0,-132.3,-150.3,-44.4,-11.4,-963.3,15.3,-102.3,1251.0,-165.6,1053.3,1854.9,290.1,1.2,2.1,-3901.2,-4266.6,-16.8,31.8,413.1,-236.4,0,1722,0,48,
0.9600,-52.5,-150.6,-175.5,-16.8,-91.2,-153.3,-47.4,-10.5,-963.3,-23.4,-93.9,1247.4,-223.8,1062.9,1866.9,292.5,1.2,2.4,-3936.6,-4232.4,-16.5,4.2,408.3,-247.5,0,1728,0,49,
0.9633,-71.4,-202.2,-175.5,-32.1,-146.1,-148.2,-39.9,-19.5,-1111.5,-5.1,-105.9,1237.8,-185.1,1048.5,1845.9,288.9,1.2,2.4,-4043.1,-4251.3,-16.8,2.7,424.2,-241.8,0,1734,0,50,
0.9667,-50.4,-114.9,-113.7,-2.1,-110.1,-163.2,-40.8,-2.1,-1704.3,-39.9,-63.3,1275.3,-225.6,1054.5,1834.2,280.8,0.9,2.4,-3648.9,-4254.6,-17.1,13.2,408.0,-244.2,0,1740,0,51,
0.9700,-42.6,-120.0,-176.1,-23.7,-129.6,-121.2,-42.9,-4.5,-1556.1,-31.8,-147.9,1254.6,-168.0,1073.7,1848.0,296.1,1.2,2.4,-4078.8,-4296.3,-16.8,10.8,409.2,-247.2,0,1746,0,52,
0.9733,-64.8,-231.0,-242.1,-34.5,-117.0,-156.6,-42.9,-19.8,-963.3,0.3,-133.8,1249.5,-178.5,1074.6,1860.9,324.3,1.2,2.4,-4008.6,-4316.4,-16.8,37.2,418.8,-219.0,0,1752,0,53,
0.9767,-55.2,-87.3,-96.3,9.6,-96.0,-139.8,-34.2,8.4,-1037.4,-31.5,-51.9,1239.9,-250.2,1031.1,1842.9,302.4,1.2,2.1,-3773.1,-4312.8,-16.8,20.1,423.3,-221.1,0,1758,0,54,
0.9800,-53.7,-199.2,-207.3,-22.8,-102.3,-118.8,-31.8,-5.7,-1111.5,10.2,-77.4,1262.7,-153.3,1073.7,1860.3,297.3,1.2,2.1,-3787.5,-4334.4,-17.1,16.2,422.4,-236.7,0,1764,0,55,
0.9833,-56.4,-186.3,-214.2,-15.9,-79.5,-131.4,-25.5,1.8,-1556.1,-2.7,-114.9,1329.3,-187.8,1059.9,1835.4,281.4,1.2,2.1,-4017.9,-4242.6,-16.8,37.2,434.7,-212.1,0,1770,0,56,
0.9867,-48.0,-146.4,-153.3,-2.4,-96.9,-116.7,-22.2,8.7,-1556.1,11.7,-79.5,1328.4,-179.4,1063.8,1846.2,290.4,1.5,2.4,-3648.0,-4262.1,-17.1,35.7,440.7,-215.4,0,1776,0,57,
0.9900,-38.1,-163.5,-181.5,-11.7,-102.3,-128.7,-26.4,2.1,-815.1,-18.6,-91.5,1326.0,-248.1,1089.6,1874.1,304.5,1.5,2.4,-3918.6,-4293.9,-16.8,23.4,449.7,-201.9,0,1782,0,58,
0.9933,-40.8,-116.1,-148.8,0.0,-88.8,-132.6,-23.7,10.5,-963.3,-2.1,-84.6,1284.6,-215.4,1049.4,1868.7,307.8,1.5,2.4,-3829.2,-4322.7,-17.1,54.0,443.1,-211.5,0,1788,0,59,
0.9967,-61.8,-175.8,-176.7,-8.1,-110.4,-105.0,-21.6,7.5,-1111.5,16.2,-87.3,1294.8,-154.8,1062.9,1859.1,287.1,0.9,2.4,-3688.5,-4348.8,-16.8,33.9,435.3,-223.8,0,1794,0,60,
1.0000,-52.8,-161.4,-106.8,1.5,-110.1,-132.3,-28.8,13.2,-1704.3,-28.8,-69.0,1259.1,-177.9,1056.9,1849.8,276.6,0.9,2.7,-3654.3,-4284.6,-16.8,48.0,445.5,-188.1,0,1800,0,61,
1.0033,-40.5,-122.7,-230.4,-18.6,-79.5,-137.4,-25.8,4.2,-1407.9,1.8,-131.7,1264.2,-224.1,1072.5,1860.9,279.9,1.5,2.7,-3924.0,-4312.5,-17.1,29.4,449.7,-215.1,0,1806,0,62,
1.0067,-60.0,-197.7,-169.8,-16.5,-126.6,-129.3,-22.5,5.7,-963.3,-5.7,-96.3,1263.3,-112.5,1072.8,1863.0,291.9,1.2,2.4,-3746.7,-4366.5,-17.1,41.1,462.9,-199.2,0,1812,0,63,
1.0100,-64.5,-199.8,-147.3,0.9,-90.3,-135.0,-25.5,4.2,-889.2,-2.1,-18.9,1277.4,-212.7,1049.4,1853.4,293.7,1.5,2.4,-3583.8,-4230.6,-17.1,40.5,440.7,-208.2,0,1818,0,64,
1.0133,-27.6,-55.8,-81.6,20.4,-55.8,-99.0,-27.6,26.4,-889.2,-69.9,-81.9,1266.9,-198.6,1076.4,1837.8,261.9,0.9,2.4,-3663.3,-4254.9,-16.8,2.4,423.0,-226.8,0,1824,0,65,
1.0167,-70.2,-197.1,-283.8,-35.7,-87.3,-107.7,-28.2,-4.2,-1556.1,38.1,-139.8,1222.5,-235.5,1034.7,1826.4,270.3,1.2,2.4,-3898.5,-4329.0,-17.1,52.8,433.2,-228.0,0,1830,0,66,
1.0200,-65.7,-211.5,-139.5,-4.8,-118.5,-117.3,-23.7,5.7,-1482.0,-15.0,-80.4,1253.7,-160.5,1045.2,1828.2,270.0,1.5,2.4,-3788.1,-4308.0,-16.8,45.3,440.7,-205.5,0,1836,0,67,
1.0233,-55.2,-143.1,-179.7,-3.9,-99.9,-158.7,-31.5,6.9,-889.2,-8.7,-95.1,1257.9,-228.6,1048.5,1827.0,279.0,1.2,2.1,-3737.4,-4291.8,-16.8,66.3,434.4,-189.3,0,1842,0,68,
1.0267,-48.3,-120.3,-108.9,15.3,-90.6,-111.9,-24.3,23.7,-963.3,-49.8,-51.3,1326.0,-213.6,1052.1,1829.1,282.0,1.2,2.7,-3708.6,-4373.7,-16.8,25.8,435.3,-223.8,0,1848,0,69,
1.0300,-55.8,-170.7,-152.7,1.8,-92.4,-138.9,-27.0,9.3,-963.3,50.1,-80.4,1337.4,-213.3,1050.3,1846.8,291.0,0.9,2.7,-3680.1,-4215.3,-16.8,46.5,426.9,-203.4,0,1854,0,70,
1.0333,-52.2,-147.6,-154.2,-10.2,-124.2,-109.2,-31.8,6.0,-1556.1,-55.5,-75.3,1290.3,-153.0,1057.8,1816.2,269.4,1.2,2.7,-3721.8,-4331.1,-16.8,13.5,420.0,-221.1,0,1860,0,71,
1.0367,-63.9,-213.9,-217.2,-38.4,-137.7,-167.1,-42.0,-12.9,-1333.8,30.0,-127.2,1198.5,-211.2,1049.4,1839.9,274.2,1.2,2.4,-3849.0,-4337.4,-17.1,58.8,426.6,-217.2,0,1866,0,72,
1.0400,-26.7,-77.1,-22.5,36.6,-85.5,-129.6,-33.9,25.8,-889.2,-76.2,-22.5,1281.3,-174.6,1082.1,1848.6,268.2,1.2,2.4,-3495.9,-4282.2,-16.8,0.6,418.8,-213.6,0,1872,0,73,
1.0433,-63.6,-206.7,-306.9,-45.0,-121.5,-138.0,-36.0,-10.5,-815.1,54.9,-150.0,1272.0,-227.4,1070.7,1857.3,301.2,1.5,2.4,-3979.8,-4321.8,-17.4,78.0,438.0,-216.3,0,1878,0,74,
1.0467,-48.6,-141.9,-105.9,20.4,-73.2,-115.5,-31.8,14.4,-1037.4,-41.7,-46.8,1274.4,-168.6,1050.0,1847.4,275.1,1.2,2.4,-3573.3,-4321.2,-17.1,36.3,426.3,-200.7,0,1884,0,75,
1.0500,-63.0,-214.8,-215.7,-14.4,-85.8,-138.9,-36.3,-3.3,-1630.2,17.1,-133.5,1294.2,-183.9,1057.2,1846.8,277.5,1.2,2.4,-3910.2,-4296.6,-17.1,50.1,424.2,-223.8,0,1890,0,76,
1.0533,-29.4,-81.9,-133.5,1.5,-109.5,-135.6,-33.3,16.2,-1407.9,-29.4,-86.7,1231.2,-236.1,1057.8,1841.1,278.7,0.9,2.4,-3834.0,-4302.3,-16.8,49.2,423.9,-218.7,0,1896,0,77,
1.0567,-52.5,-175.8,-185.4,-18.3,-104.4,-136.5,-36.0,0.0,-1037.4,2.4,-129.0,1210.2,-235.8,1062.3,1863.3,286.5,1.2,2.4,-3739.5,-4322.1,-17.1,61.8,427.2,-218.1,0,1902,0,78,
1.0600,-60.9,-209.4,-235.2,-14.4,-66.3,-125.4,-30.9,-2.4,-963.3,-3.0,-92.7,1241.1,-153.0,1063.2,1864.2,285.6,1.5,2.4,-3706.5,-4250.1,-16.8,30.9,431.7,-222.6,0,1908,0,79,
1.0633,-45.3,-123.9,-118.5,6.0,-87.3,-134.1,-35.4,9.6,-1037.4,-32.1,-76.5,1230.6,-213.6,1053.0,1857.6,282.9,1.2,2.4,-3737.7,-4310.4,-17.1,33.6,420.9,-204.3,0,1914,0,80,
1.0667,-45.6,-131.7,-154.8,0.9,-84.6,-85.2,-28.2,12.9,-1630.2,-22.8,-102.3,1274.7,-231.9,1061.7,1832.1,263.4,0.9,2.4,-3789.3,-4296.6,-16.8,38.1,423.3,-215.7,0,1920,0,81,
1.0700,-40.5,-109.2,-188.7,-10.2,-90.0,-116.1,-34.5,5.4,-1482.0,-2.1,-89.7,1311.6,-210.3,1047.3,1827.9,263.1,0.6,2.7,-3777.6,-4255.5,-17.1,26.7,427.5,-204.0,0,1926,0,82,
1.0733,-47.4,-120.9,-94.5,9.0,-87.6,-142.8,-34.5,15.0,-1037.4,-78.3,-63.9,1278.6,-239.4,1045.2,1845.9,278.7,0.9,2.7,-3603.9,-4385.7,-16.8,40.2,431.4,-199.2,0,1932,0,83,
1.0767,-54.6,-204.3,-243.9,-42.9,-134.1,-119.7,-27.9,-9.0,-963.3,40.8,-133.2,1288.5,-181.5,1070.1,1857.0,302.1,0.6,2.4,-3942.6,-4230.6,-16.8,60.0,434.7,-195.6,0,1938,0,84,
1.0800,-69.9,-210.6,-181.2,-30.3,-138.6,-147.3,-34.2,-6.6,-889.2,7.2,-97.2,1247.7,-175.8,1050.0,1858.2,294.6,1.2,2.4,-3743.4,-4338.6,-17.1,68.7,429.6,-198.3,0,1944,0,85,
1.0833,-51.6,-110.1,-123.0,-0.6,-83.1,-105.0,-26.1,16.2,-1556.1,-47.1,-123.9,1248.3,-245.4,1036.8,1821.0,282.3,1.2,2.4,-3873.6,-4275.3,-17.4,24.0,428.7,-191.1,0,1950,0,86,
1.0867,-65.7,-207.0,-208.2,-17.1,-106.8,-130.8,-34.5,-6.9,-1482.0,-18.0,-61.2,1247.1,-213.6,1051.8,1840.2,289.2,1.5,2.1,-3501.3,-4333.8,-17.1,44.7,437.7,-210.3,0,1956,0,87,
1.0900,-65.7,-172.5,-185.7,-23.4,-102.6,-124.2,-40.5,-2.4,-963.3,16.5,-152.4,1210.5,-212.4,1045.5,1854.6,293.4,1.2,2.7,-3930.0,-4305.3,-16.8,51.3,433.5,-200.7,0,1962,0,88,
1.0933,-54.6,-138.0,-166.2,1.2,-87.9,-131.1,-36.3,8.1,-889.2,-17.7,-25.5,1216.5,-200.1,1045.5,1851.9,279.6,1.2,2.4,-3483.0,-4300.5,-16.8,20.1,429.6,-210.6,0,1968,0,89,
1.0967,-47.1,-126.9,-192.3,-20.1,-101.1,-123.6,-38.7,-2.7,-1111.5,-7.5,-133.5,1283.4,-233.4,1055.7,1852.5,283.2,1.5,2.7,-3876.3,-4271.7,-16.8,48.3,428.1,-199.5,0,1974,0,90,
1.1000,-62.1,-193.5,-184.2,-21.6,-106.2,-126.0,-34.2,-6.0,-1556.1,-41.7,-115.8,1209.0,-196.2,1053.6,1843.5,272.1,0.9,2.4,-3705.6,-4332.9,-16.8,46.2,422.1,-210.6,0,1980,0,91,
1.1033,-72.6,-156.9,-160.2,-8.7,-90.6,-117.3,-35.7,-1.8,-1333.8,-37.2,-94.2,1223.7,-241.2,1027.2,1842.0,285.0,1.2,2.7,-3738.9,-4289.7,-16.5,35.1,422.1,-219.6,0,1986,0,92,
1.1067,-43.2,-105.6,-198.0,-28.5,-118.5,-156.9,-41.4,-0.9,-963.3,-27.3,-151.8,1209.0,-273.9,1054.8,1864.2,287.7,1.2,2.4,-3776.7,-4346.7,-17.1,42.3,416.1,-206.7,0,1992,0,93,
1.1100,-64.5,-223.2,-239.7,-33.6,-108.3,-98.4,-34.2,-7.2,-889.2,-6.6,-99.3,1231.2,-176.4,1059.9,1870.5,291.9,1.2,2.4,-3631.8,-4328.1,-16.8,54.0,436.8,-206.1,0,1998,0,94,
1.1133,-57.0,-156.3,-144.0,-13.8,-90.3,-129.0,-33.0,2.7,-1111.5,47.1,-108.0,1228.5,-190.2,1057.8,1880.1,287.4,0.9,2.1,-3671.4,-4285.8,-17.1,40.2,433.5,-199.2,0,2004,0,95,
1.1167,-52.2,-162.9,-166.2,-0.3,-81.9,-135.0,-38.4,3.9,-1630.2,-46.8,-91.8,1258.5,-204.6,1052.1,1849.5,268.5,1.2,2.1,-3586.2,-4229.1,-17.1,43.2,416.4,-200.4,0,2010,0,96,
1.1200,-52.2,-170.4,-186.9,-20.7,-98.1,-105.9,-33.9,-3.9,-1482.0,-22.2,-144.0,1251.9,-169.8,1062.3,1843.8,279.0,0.6,2.4,-3819.6,-4345.2,-17.1,26.4,419.4,-218.4,0,2016,0,97,
1.1233,-60.6,-153.6,-142.5,-12.3,-124.8,-131.4,-38.4,0.9,-1111.5,-44.7,-69.0,1255.8,-244.2,1036.8,1864.2,296.7,1.2,2.4,-3449.4,-4382.4,-17.1,60.9,417.6,-205.8,0,2022,0,98,
1.1267,-50.1,-136.2,-241.5,-35.1,-122.7,-145.8,-42.9,-8.1,-963.3,-1.8,-124.8,1201.8,-268.8,1054.8,1848.9,290.7,1.5,2.1,-3663.0,-4353.3,-17.1,52.5,415.2,-202.2,0,2028,0,99,
1.1300,-59.1,-165.6,-128.1,2.1,-70.8,-123.6,-39.9,5.7,-1185.6,-61.2,-112.5,1214.4,-195.9,1043.7,1842.9,285.9,1.2,2.4,-3518.7,-4300.2,-17.1,12.6,413.4,-215.7,0,2034,0,100,
1.1333,-63.0,-207.6,-231.6,-19.5,-60.6,-74.1,-41.7,0.6,-1630.2,5.7,-161.7,1173.0,-209.1,1056.3,1828.8,288.3,0.9,2.4,-3716.7,-4310.4,-17.1,24.0,408.0,-227.7,0,2040,0,101,
1.1367,-66.9,-179.4,-158.1,-19.2,-123.9,-159.6,-46.2,-3.3,-1556.1,-13.2,-75.9,1141.5,-275.4,1029.0,1833.0,294.6,0.9,2.4,-3441.6,-4418.1,-16.5,51.6,417.9,-197.4,0,2046,0,102,
1.1400,-51.3,-164.7,-182.7,-32.7,-127.5,-160.2,-48.9,-5.7,-1111.5,-47.7,-151.2,1195.5,-201.6,1058.4,1856.1,291.9,1.2,2.1,-3536.7,-4364.7,-16.8,55.8,408.3,-199.2,0,2052,0,103,
1.1433,-40.8,-100.2,-187.8,-23.4,-113.1,-147.9,-45.0,3.9,-963.3,-75.6,-119.1,1225.8,-297.3,1041.9,1845.6,286.5,0.9,2.4,-3532.8,-4347.3,-17.1,27.0,417.0,-220.5,0,2058,0,104,
1.1467,-67.5,-198.0,-199.5,-32.7,-124.5,-147.0,-47.1,-12.9,-1037.4,-21.6,-120.9,1211.1,-180.9,1051.5,1831.8,296.4,1.5,2.7,-3486.0,-4338.9,-17.1,44.4,420.3,-215.7,0,2064,0,105,
1.1500,-59.4,-156.6,-187.5,-14.1,-90.3,-136.8,-44.4,-1.8,-1630.2,-52.8,-121.5,1277.1,-295.5,1032.3,1820.4,272.4,1.2,2.1,-3543.9,-4286.4,-16.8,14.1,409.8,-226.2,0,2070,0,106,
1.1533,-55.5,-133.8,-45.0,21.9,-65.4,-85.2,-39.3,15.0,-1630.2,-76.5,-49.5,1265.4,-234.9,1034.1,1832.4,288.6,1.2,2.7,-3228.3,-4321.2,-16.8,17.1,410.1,-220.8,0,2076,0,107,
1.1567,-72.3,-244.2,-333.0,-79.5,-168.6,-189.0,-51.9,-39.9,-1037.4,7.8,-207.3,1223.4,-196.2,1052.4,1860.3,304.5,1.5,2.4,-3903.6,-4301.4,-17.1,52.2,418.2,-206.1,0,2082,0,108,
1.1600,-70.5,-207.9,-194.7,-28.5,-98.7,-129.3,-47.1,-19.5,-1037.4,-79.2,-76.5,1212.9,-255.3,1046.7,1828.5,294.6,0.9,2.7,-3436.5,-4275.0,-16.8,25.5,406.8,-222.0,0,2088,0,109,
1.1633,-34.2,-18.6,-130.5,-18.9,-126.0,-159.9,-57.3,-6.3,-1111.5,-28.8,-143.7,1197.0,-289.2,1049.1,1812.0,264.9,1.2,2.1,-3617.4,-4355.4,-17.1,13.8,405.6,-228.0,0,2094,0,110,
1.1667,-91.8,-312.0,-279.6,-59.4,-136.5,-128.1,-51.9,-38.4,-1630.2,0.3,-144.9,1196.4,-216.6,1039.5,1811.1,276.3,0.9,2.7,-3599.7,-4357.5,-17.1,57.6,414.9,-231.3,0,2100,0,111,
1.1700,-54.6,-116.7,-190.8,-33.3,-101.1,-146.1,-49.8,-12.0,-1704.3,-18.0,-133.5,1193.7,-267.3,1038.6,1809.3,263.7,1.2,2.7,-3512.7,-4322.7,-16.8,24.3,403.5,-222.3,0,2106,0,112,
1.1733,-70.2,-199.2,-189.9,-26.1,-105.9,-141.6,-48.9,-10.5,-1111.5,-118.2,-88.2,1184.1,-184.5,1041.3,1815.9,284.7,1.2,2.4,-3429.3,-4320.6,-17.1,25.5,403.8,-212.1,0,2112,0,113,
1.1767,-59.4,-151.8,-163.5,-20.4,-129.6,-150.6,-48.6,-8.4,-1111.5,-10.2,-97.2,1172.1,-263.4,1035.6,1825.5,281.4,0.9,2.1,-3242.7,-4349.7,-17.1,53.4,413.4,-211.2,0,2118,0,114,
1.1800,-63.6,-180.3,-197.4,-11.7,-69.0,-103.2,-36.3,5.4,-1333.8,24.3,-143.1,1155.9,-224.7,1047.3,1821.6,276.3,1.2,2.1,-3511.5,-4315.5,-16.8,59.7,414.6,-182.1,0,2124,0,115,
1.1833,-54.6,-152.4,-126.6,-5.7,-86.4,-135.3,-43.8,3.6,-1926.6,-79.8,-91.2,1140.3,-200.1,1047.6,1803.9,256.8,1.2,2.4,-3334.2,-4334.7,-17.1,35.4,416.1,-208.5,0,2130,0,116,
1.1867,-71.1,-171.9,-237.3,-18.9,-84.3,-69.6,-28.2,9.0,-1926.6,-78.3,-162.6,1229.7,-266.1,1023.9,1798.5,270.9,0.9,2.4,-3683.4,-4255.2,-16.8,19.2,417.6,-223.5,0,2136,0,117,
1.1900,-50.7,-123.3,-92.4,3.6,-98.7,-141.9,-42.0,4.5,-1259.7,-49.2,-89.4,1278.0,-305.1,1039.2,1813.5,273.0,1.2,2.4,-3215.7,-4328.4,-16.8,48.0,428.4,-189.0,0,2142,0,118,
1.1933,-66.3,-202.5,-293.7,-55.2,-139.5,-144.6,-44.1,-19.8,-1259.7,-1.5,-152.7,1265.4,-237.3,1046.7,1818.3,284.4,0.6,2.4,-3583.2,-4312.2,-16.8,37.5,418.2,-199.5,0,2148,0,119,
1.1967,-78.0,-207.9,-219.0,-29.1,-106.2,-135.9,-42.3,-16.2,-1259.7,-55.8,-117.9,1213.2,-231.0,1030.8,1811.1,268.5,1.2,2.4,-3359.7,-4331.1,-17.4,73.8,414.0,-209.7,0,2154,0,120,
1.2000,-48.6,-104.7,-127.8,6.6,-94.8,-131.7,-42.0,9.6,-1926.6,-31.2,-74.4,1198.2,-255.6,1044.0,1788.0,249.6,0.9,2.4,-3237.6,-4245.3,-17.1,9.6,402.9,-198.6,0,2160,0,121,
1.2033,-82.2,-242.7,-251.1,-18.0,-69.0,-117.0,-34.2,-10.8,-1778.4,-14.4,-152.1,1179.0,-233.4,1033.5,1806.3,276.9,0.9,2.7,-3375.0,-4269.9,-17.4,63.9,426.6,-204.6,0,2166,0,122,
1.2067,-57.9,-155.4,-142.5,-3.6,-100.2,-115.8,-39.3,7.8,-1333.8,-64.8,-122.4,1222.8,-193.8,1050.0,1812.0,270.3,0.9,2.7,-3399.6,-4366.8,-16.8,15.9,420.6,-192.9,0,2172,0,123,
1.2100,-56.4,-135.6,-161.1,-13.2,-137.4,-163.5,-44.1,-0.9,-1111.5,-61.8,-98.4,1219.8,-253.5,1042.8,1818.9,279.6,0.9,2.4,-3249.3,-4322.7,-16.8,71.4,425.1,-202.2,0,2178,0,124,
1.2133,-65.4,-194.1,-195.3,-11.1,-75.3,-111.3,-37.5,0.9,-1259.7,44.4,-132.9,1173.3,-199.5,1056.6,1801.2,264.9,1.2,2.1,-3337.8,-4321.5,-17.1,45.0,417.3,-190.5,0,2184,0,125,
1.2167,-55.5,-105.6,-149.1,4.8,-90.9,-142.2,-38.4,9.3,-1926.6,-109.5,-81.6,1220.7,-226.8,1038.3,1797.6,245.4,1.2,2.1,-3372.9,-4251.6,-16.8,60.3,418.2,-190.5,0,2190,0,126,
1.2200,-57.3,-153.6,-126.0,10.5,-56.7,-94.5,-34.8,15.6,-1630.2,-12.0,-147.3,1245.0,-282.9,1036.8,1803.6,238.5,1.2,2.7,-3377.7,-4257.6,-16.8,39.0,415.8,-196.5,0,2196,0,127,
1.2233,-76.5,-213.3,-253.2,-17.7,-82.8,-53.4,-20.7,-0.3,-1111.5,-43.8,-102.3,1238.7,-259.8,1035.0,1808.7,234.3,0.9,2.1,-3375.0,-4195.5,-17.4,81.3,434.4,-189.3,0,2202,0,128,
1.2267,-39.6,-66.6,-103.5,-1.8,-135.6,-159.0,-43.2,5.1,-1185.6,-32.1,-71.7,1190.1,-239.7,1059.3,1803.9,228.3,1.2,2.4,-3145.2,-4359.6,-16.8,62.1,427.5,-176.1,0,2208,0,129,
1.2300,-76.8,-245.1,-251.4,-28.5,-101.7,-126.0,-30.3,-10.2,-1037.4,5.1,-150.0,1201.5,-212.1,1043.7,1811.4,230.7,1.2,2.4,-3504.3,-4232.4,-17.1,96.9,448.8,-150.0,0,2214,0,130,
1.2333,-57.3,-166.5,-188.4,-23.7,-134.1,-146.4,-41.1,-6.3,-1926.6,27.3,-114.3,1192.2,-179.7,1060.2,1778.1,211.5,1.2,2.1,-3238.2,-4310.1,-16.8,92.4,424.2,-180.0,0,2220,0,131,
1.2367,-67.8,-205.8,-208.2,-9.6,-71.7,-112.8,-29.7,-3.0,-1556.1,-43.2,-81.3,1221.0,-210.6,1043.7,1778.7,218.1,1.5,2.1,-3252.3,-4255.2,-17.1,60.3,437.7,-172.8,0,2226,0,132,
1.2400,-42.6,-99.6,-127.5,-3.9,-113.7,-128.7,-39.3,7.2,-1111.5,-34.2,-99.0,1145.1,-197.7,1057.8,1781.4,230.1,1.2,2.4,-3167.1,-4337.7,-16.8,54.6,425.7,-187.2,0,2232,0,133,
1.2433,-68.7,-213.3,-219.6,-5.4,-44.1,-104.4,-32.4,-2.1,-1037.4,13.2,-129.9,1223.7,-211.8,1053.3,1774.2,225.9,1.5,2.1,-3385.5,-4210.8,-16.8,75.9,438.0,-180.6,0,2238,0,134,
1.2467,-42.0,-92.1,-138.9,-14.1,-116.4,-115.5,-39.6,5.7,-1111.5,-6.3,-126.9,1185.9,-231.0,1059.3,1761.6,216.6,1.2,2.4,-3235.5,-4354.8,-16.5,47.7,430.2,-176.1,0,2244,0,135,
1.2500,-62.7,-204.0,-258.3,-36.9,-101.7,-127.8,-41.7,-10.8,-1778.4,-23.7,-147.0,1140.9,-186.6,1060.5,1751.7,217.2,1.5,2.4,-3333.0,-4296.0,-17.1,91.5,432.6,-168.6,0,2250,0,136,
1.2533,-37.5,-29.1,5.4,36.3,-78.9,-122.7,-43.5,22.2,-1556.1,-128.4,-7.8,1172.1,-209.4,1056.9,1749.3,216.9,1.8,2.7,-2854.2,-4281.0,-16.8,57.3,418.2,-187.5,0,2256,0,137,
1.2567,-59.7,-147.0,-213.6,-19.2,-75.6,-96.9,-42.0,-2.1,-1037.4,35.4,-149.4,1150.5,-314.7,1044.6,1777.5,227.7,1.2,2.4,-3394.2,-4330.5,-17.1,76.8,429.6,-192.3,0,2262,0,138,
1.2600,-58.8,-149.4,-198.3,-1.5,-60.0,-67.8,-29.1,8.4,-963.3,-38.7,-113.4,1167.3,-184.8,1060.2,1780.5,220.2,1.2,2.4,-3111.0,-4265.1,-16.5,36.0,441.3,-205.2,0,2268,0,139,
1.2633,-84.3,-260.1,-250.5,-39.6,-119.1,-143.1,-43.5,-15.9,-963.3,19.8,-169.2,1169.1,-204.9,1041.0,1778.4,229.8,1.2,2.1,-3415.8,-4311.0,-17.1,111.6,442.5,-183.6,0,2274,0,140,
1.2667,-43.5,-112.5,-129.6,-6.3,-111.9,-112.2,-39.3,1.8,-1630.2,-34.5,-82.8,1168.2,-198.0,1055.1,1770.3,202.5,0.9,2.4,-3052.8,-4318.8,-16.8,60.0,434.4,-190.5,0,2280,0,141,
1.2700,-56.7,-159.9,-157.8,-5.1,-107.1,-139.2,-46.8,4.2,-1556.1,10.5,-143.7,1204.8,-209.7,1056.3,1777.8,213.3,0.9,2.4,-3261.9,-4301.7,-16.8,49.2,433.2,-174.6,0,2286,0,142,
1.2733,-57.9,-184.8,-231.6,-20.4,-85.2,-129.6,-38.4,-5.7,-963.3,14.7,-132.9,1169.4,-190.5,1068.9,1812.6,224.1,1.2,2.4,-3224.7,-4269.3,-17.1,73.8,438.6,-165.0,0,2292,0,143,
1.2767,-67.8,-208.8,-239.1,-16.5,-63.6,-128.1,-38.7,1.2,-1037.4,2.1,-153.3,1123.8,-189.3,1049.7,1778.7,217.2,1.2,2.1,-3214.2,-4315.2,-17.1,78.9,445.8,-175.2,0,2298,0,144,
1.2800,-52.5,-146.7,-163.8,-10.8,-122.1,-112.5,-33.6,9.6,-1037.4,-22.2,-112.5,1136.4,-214.5,1050.9,1773.6,200.1,1.2,2.4,-3118.8,-4232.4,-16.8,79.8,435.6,-171.3,0,2304,0,145,
1.2833,-55.8,-132.9,-110.4,7.8,-86.1,-81.6,-33.3,15.6,-1630.2,-37.2,-116.1,1212.0,-218.7,1047.3,1756.5,150.9,1.2,2.1,-3113.4,-4336.5,-16.8,48.6,421.5,-183.9,0,2310,0,146,
1.2867,-62.1,-149.1,-202.8,-29.7,-131.1,-167.1,-44.7,-8.1,-1482.0,-54.9,-146.7,1206.6,-213.3,1044.3,1762.5,157.8,1.2,2.1,-3203.7,-4272.3,-17.1,43.2,423.9,-157.5,0,2316,0,147,
1.2900,-59.4,-141.6,-151.5,-4.2,-69.6,-80.7,-38.4,5.7,-1111.5,-74.4,-123.3,1171.5,-243.6,1041.3,1780.5,143.7,0.9,2.4,-3157.8,-4340.4,-17.1,76.8,416.7,-174.3,0,2322,0,148,
1.2933,-70.8,-199.5,-211.2,-18.9,-81.3,-122.4,-45.3,-2.4,-1037.4,37.8,-137.4,1203.9,-196.2,1046.7,1779.6,142.2,1.2,2.4,-3257.4,-4263.9,-17.1,63.9,403.5,-173.7,0,2328,0,149,
1.2967,-58.8,-101.7,-78.0,15.3,-98.4,-93.3,-38.7,18.0,-1111.5,-60.3,-55.2,1143.3,-202.5,1035.9,1753.2,116.4,1.2,2.1,-2986.2,-4291.5,-16.8,18.0,411.9,-185.4,0,2334,0,150,
1.3000,-62.7,-167.4,-158.7,-2.4,-79.8,-147.0,-42.9,2.4,-1704.3,-33.0,-115.5,1132.5,-206.7,1044.9,1788.0,122.4,1.2,2.7,-3178.8,-4316.7,-16.8,86.7,403.2,-146.7,0,2340,0,151,
1.3033,-54.9,-118.5,-191.4,-21.0,-120.6,-109.5,-42.3,-1.5,-1556.1,-24.3,-138.0,1087.5,-246.3,1050.9,1814.7,131.1,1.2,2.7,-3311.7,-4337.1,-16.8,73.2,396.9,-143.1,0,2346,0,152,
1.3067,-66.0,-176.4,-180.9,22.8,8.7,-59.7,-36.0,18.9,-963.3,-11.7,-107.7,1176.6,-215.4,1037.4,1831.8,131.7,0.9,2.1,-3253.8,-4234.8,-16.8,41.1,390.3,-184.5,0,2352,0,153,
1.3100,-51.0,-114.3,-107.4,-0.6,-124.5,-153.9,-48.0,9.9,-889.2,3.9,-121.8,1180.5,-219.9,1052.4,1866.6,120.6,1.5,2.4,-3191.1,-4319.1,-16.8,78.6,401.4,-144.0,0,2358,0,154,
1.3133,-65.1,-185.1,-230.7,-22.8,-105.3,-101.7,-47.7,2.4,-815.1,6.0,-149.4,1165.5,-210.0,1053.9,1879.8,115.8,1.2,2.1,-3343.2,-4303.2,-17.1,90.0,397.8,-147.3,0,2364,0,155,
1.3167,-72.3,-177.9,-146.7,0.9,-81.9,-128.4,-48.0,8.7,-1556.1,-40.5,-88.8,1158.3,-180.9,1039.5,1853.7,97.2,1.2,2.4,-3179.1,-4289.1,-16.8,98.7,393.0,-128.1,0,2370,0,156,
1.3200,-62.4,-142.8,-104.4,14.1,-83.7,-121.5,-51.0,12.0,-1482.0,-28.5,-67.8,1159.8,-223.2,1048.8,1855.2,127.5,0.9,2.4,-3067.2,-4249.8,-17.1,65.1,386.1,-145.8,0,2376,0,157,
1.3233,-60.0,-117.9,-187.5,-12.3,-87.0,-129.9,-49.8,7.5,-1037.4,-32.1,-151.8,1176.9,-222.0,1055.7,1871.4,137.1,1.5,2.4,-3356.7,-4303.5,-16.8,56.1,390.3,-146.7,0,2382,0,158,
1.3267,-80.4,-193.2,-177.9,-6.9,-77.1,-92.4,-44.1,8.7,-889.2,6.6,-134.1,1177.8,-195.9,1042.8,1872.9,133.8,0.9,2.4,-3198.0,-4285.2,-16.8,78.0,389.1,-131.7,0,2388,0,159,
1.3300,-75.3,-145.5,-151.2,11.7,-29.7,-71.4,-38.1,14.1,-1037.4,-31.8,-117.9,1107.9,-218.4,1030.5,1860.6,125.1,0.9,2.7,-3175.8,-4236.9,-17.1,39.6,383.7,-171.6,0,2394,0,160,
1.3333,-68.7,-120.0,-128.7,-6.6,-116.4,-104.1,-50.4,4.2,-1407.9,-61.5,-114.0,1066.2,-238.2,1033.2,1858.5,111.9,0.9,2.1,-3078.0,-4380.9,-16.8,84.3,379.2,-128.1,0,2400,0,161,
1.3367,-82.5,-197.7,-212.4,-13.2,-66.9,-161.1,-59.1,-5.7,-1482.0,-13.2,-147.9,1155.6,-209.1,1034.7,1870.8,129.0,0.9,2.7,-3369.9,-4270.5,-16.8,100.5,379.2,-132.3,0,2406,0,162,
1.3400,-67.8,-135.3,-177.0,-13.8,-109.5,-100.8,-42.6,8.1,-963.3,-42.6,-128.4,1141.5,-214.5,1042.2,1866.3,127.2,1.2,2.1,-3278.4,-4335.3,-16.8,65.4,381.0,-142.5,0,2412,0,163,
1.3433,-74.7,-181.2,-194.1,-12.9,-66.3,-150.6,-56.1,-1.5,-815.1,5.1,-100.2,1127.7,-198.0,1045.2,1871.4,135.9,1.2,2.4,-3296.7,-4206.3,-16.8,37.2,375.0,-126.0,0,2418,0,164,
1.3467,-73.2,-152.7,-164.1,-2.7,-67.5,-80.4,-39.6,3.9,-1037.4,-71.4,-150.6,1107.6,-234.0,1033.2,1861.2,134.7,0.9,2.7,-3267.9,-4341.9,-16.8,107.7,390.6,-132.3,0,2424,0,165,
1.3500,-72.6,-156.3,-209.7,-33.0,-141.9,-146.7,-53.4,-15.6,-1482.0,17.4,-153.0,1123.8,-218.1,1039.2,1856.7,135.3,1.2,2.4,-3262.2,-4221.6,-16.8,103.5,384.9,-128.7,0,2430,0,166,
1.3533,-69.9,-135.0,-164.4,0.6,-56.7,-93.6,-50.7,5.1,-1556.1,-37.5,-120.0,1141.5,-227.4,1030.8,1851.9,128.7,1.5,2.1,-3182.1,-4288.5,-17.1,54.6,372.3,-130.8,0,2436,0,167,
1.3567,-75.3,-182.1,-218.1,-24.3,-94.8,-133.2,-49.8,-8.4,-889.2,-9.0,-148.8,1115.4,-203.7,1032.3,1853.4,145.2,1.2,2.4,-3383.7,-4271.7,-16.8,92.7,384.9,-120.3,0,2442,0,168,
1.3600,-67.5,-146.4,-177.0,-12.6,-84.6,-105.9,-49.5,-1.8,-889.2,-30.3,-89.7,1067.1,-206.1,1039.8,1851.0,150.9,1.5,2.4,-3200.7,-4342.8,-16.8,54.9,379.2,-131.4,0,2448,0,169,
1.3633,-66.9,-134.4,-138.3,-0.3,-74.7,-93.9,-47.1,5.4,-815.1,-39.0,-125.4,1074.0,-239.1,1036.5,1837.8,144.0,0.9,2.4,-3230.7,-4337.7,-17.1,53.1,379.2,-128.7,0,2454,0,170,
1.3667,-63.0,-129.3,-204.9,0.6,-44.7,-77.7,-45.6,4.8,-1407.9,-76.5,-123.6,1124.4,-210.0,1044.9,1815.9,147.0,1.2,2.1,-3266.4,-4200.3,-17.1,48.9,365.1,-158.1,0,2460,0,171,
1.3700,-73.2,-153.6,-196.5,-34.8,-126.6,-159.6,-54.9,-14.1,-1482.0,-19.2,-138.0,1091.7,-219.0,1041.0,1824.9,147.9,1.5,2.4,-3267.9,-4430.7,-16.8,60.0,385.2,-147.0,0,2466,0,172,
1.3733,-69.6,-141.9,-206.1,-21.6,-106.5,-133.8,-52.2,-1.8,-889.2,-67.2,-161.7,1080.3,-215.4,1037.1,1843.5,165.0,1.2,2.4,-3306.0,-4321.8,-17.1,69.9,386.4,-131.4,0,2472,0,173,
1.3767,-55.8,-56.1,-171.9,-22.2,-101.1,-126.6,-49.8,4.8,-815.1,-60.3,-154.8,1071.6,-268.5,1038.0,1849.8,158.1,1.2,2.4,-3107.4,-4274.4,-16.8,33.0,391.5,-152.7,0,2478,0,174,
1.3800,-73.2,-187.8,-237.9,-42.0,-109.2,-130.8,-53.7,-9.6,-815.1,-9.6,-154.2,1038.9,-204.0,1048.8,1844.1,164.1,0.9,2.4,-3234.3,-4330.2,-17.1,68.4,399.0,-134.4,0,2484,0,175,
1.3833,-60.6,-135.6,-223.2,-30.3,-80.7,-70.2,-40.2,3.3,-1111.5,-21.0,-149.7,1145.4,-209.1,1052.1,1812.9,159.0,1.2,2.4,-3322.8,-4367.7,-16.8,75.6,412.5,-140.7,0,2490,0,176,
1.3867,-60.3,-139.8,-202.5,-33.3,-142.5,-152.4,-63.0,-8.7,-815.1,-32.4,-122.1,1208.7,-185.1,1055.7,1833.6,174.3,0.9,2.4,-3265.5,-4275.0,-17.1,103.8,400.5,-131.1,0,2496,0,177,
1.3900,-60.9,-141.6,-182.4,-4.8,-64.8,-48.0,-34.5,9.9,0.0,3.9,-135.3,1161.9,-192.6,1058.1,1838.4,168.9,0.9,2.4,-3196.2,-4337.4,-16.8,32.4,420.6,-151.5,0,2502,0,178,
1.3933,-54.9,-135.6,-205.8,-18.3,-83.7,-123.3,-50.1,2.7,296.4,-33.3,-132.9,1167.0,-183.6,1068.9,1857.9,165.6,0.9,2.1,-3141.6,-4276.2,-17.1,51.0,416.4,-151.5,0,2508,0,179,
1.3967,-56.1,-131.4,-195.3,-27.0,-127.8,-134.7,-52.8,-6.6,815.1,15.6,-136.2,1141.2,-194.4,1061.4,1865.4,180.6,1.2,2.4,-3162.0,-4296.6,-16.8,91.8,419.4,-123.6,0,2514,0,180,
1.4000,-50.4,-127.5,-225.6,-30.9,-124.8,-140.7,-54.3,-0.3,296.4,-8.4,-157.2,1098.6,-215.4,1060.8,1870.5,185.1,0.9,2.4,-3187.8,-4338.3,-17.1,73.2,411.6,-155.7,0,2520,0,181,
1.4033,-57.3,-147.6,-209.7,-33.0,-122.4,-99.6,-43.5,0.3,222.3,-16.5,-146.1,1084.2,-186.6,1063.8,1893.9,207.0,1.2,2.4,-3234.0,-4387.8,-16.8,88.8,426.9,-120.6,0,2526,0,182,
1.4067,-54.0,-141.6,-217.8,-40.2,-139.8,-144.9,-50.7,-0.3,666.9,-5.1,-153.9,1086.3,-186.6,1062.9,1936.2,236.1,1.2,2.1,-3234.3,-4362.3,-16.8,73.8,441.6,-129.6,0,2532,0,183,
1.4100,-55.2,-143.4,-208.5,-32.4,-131.7,-129.0,-44.4,3.9,815.1,-38.7,-167.7,1063.2,-194.7,1054.5,1941.9,236.1,1.5,2.4,-3256.2,-4382.4,-16.8,93.9,435.3,-141.3,0,2538,0,184,
1.4133,-59.1,-145.8,-186.0,-23.4,-90.9,-85.8,-39.0,8.7,741.0,-46.8,-163.5,1039.8,-210.6,1050.0,1959.0,258.9,1.2,2.4,-3159.9,-4376.1,-17.1,45.6,419.1,-162.6,0,2544,0,185,
1.4167,-62.4,-140.1,-183.0,-18.6,-102.9,-111.6,-47.7,2.1,0.0,-69.3,-136.8,1062.6,-210.0,1042.5,1937.4,228.3,1.2,2.7,-3193.2,-4296.6,-17.1,3.9,411.9,-163.2,0,2550,0,186,
1.4200,-61.5,-149.4,-214.2,-50.4,-143.7,-162.6,-60.0,-13.2,-74.1,-8.7,-190.8,960.6,-206.1,1058.7,1971.6,255.9,1.2,2.7,-3283.5,-4455.0,-17.1,57.3,417.3,-177.3,0,2556,0,187,
1.4233,-62.7,-124.8,-166.2,-15.3,-102.9,-101.4,-52.5,-1.8,296.4,-74.7,-139.5,1048.5,-211.8,1045.8,1967.4,246.0,1.2,2.4,-3171.9,-4331.7,-17.1,22.5,404.7,-180.9,0,2562,0,188,
1.4267,-72.6,-154.2,-235.8,-40.2,-106.8,-125.1,-44.1,-13.8,296.4,-1.5,-216.6,1014.9,-210.0,1041.3,1949.1,266.7,1.2,2.7,-3303.6,-4384.2,-17.1,74.7,427.8,-146.4,0,2568,0,189,
1.4300,-80.1,-168.9,-201.6,-28.2,-93.3,-116.7,-49.5,-11.4,296.4,-66.9,-190.8,959.4,-234.9,1029.9,1930.8,273.6,0.9,2.1,-3231.3,-4263.9,-16.8,42.0,420.6,-167.4,0,2574,0,190,
1.4333,-79.5,-157.8,-196.8,-29.1,-108.3,-128.1,-46.8,-10.2,-370.5,-38.1,-168.0,841.8,-209.4,1031.1,1903.8,252.3,1.2,2.4,-3149.1,-4472.1,-17.1,58.2,423.0,-129.3,0,2580,0,191,
1.4367,-79.8,-154.2,-212.7,-31.5,-121.8,-139.8,-50.4,-11.1,-370.5,-37.5,-196.8,1020.3,-217.2,1031.1,1914.6,252.9,1.2,2.4,-3273.9,-4218.3,-17.1,54.0,422.1,-163.2,0,2586,0,192,
1.4400,-82.5,-156.6,-201.0,-30.0,-109.5,-113.7,-45.3,-9.9,0.0,-67.8,-175.8,1053.3,-222.6,1027.5,1919.7,266.7,1.2,2.7,-3196.5,-4352.4,-17.1,46.8,431.1,-136.8,0,2592,0,193,
1.4433,-83.4,-150.3,-171.9,-23.1,-111.3,-89.7,-43.5,-0.9,0.0,-45.0,-181.5,1054.2,-226.2,1026.9,1939.5,266.1,1.2,2.1,-3192.0,-4338.3,-17.1,26.7,428.4,-205.2,0,2598,0,194,
1.4467,-67.5,-135.9,-183.3,-9.3,-83.4,-127.8,-47.4,7.8,148.2,-21.3,-155.7,982.5,-195.9,1042.2,1937.4,262.2,1.2,2.4,-3152.1,-4369.2,-16.8,51.3,431.4,-124.5,0,2604,0,195,
1.4500,-78.0,-153.3,-205.2,-20.1,-89.7,-78.9,-43.8,3.3,-741.0,-41.4,-198.9,988.2,-215.1,1032.0,1934.4,259.2,1.5,2.4,-3252.9,-4336.8,-16.8,63.3,417.9,-153.6,0,2610,0,196,
1.4533,-74.1,-146.4,-193.2,-18.3,-96.6,-138.0,-53.4,2.7,-518.7,-61.8,-180.0,1050.6,-211.2,1034.1,1953.6,275.4,1.2,2.4,-3237.0,-4295.4,-16.8,59.1,418.5,-165.6,0,2616,0,197,
1.4567,-69.6,-137.7,-182.7,-17.4,-115.5,-123.9,-56.4,1.8,-370.5,-40.5,-163.5,1079.4,-197.4,1044.6,1965.0,274.5,1.5,2.7,-3212.1,-4178.4,-16.8,37.2,404.1,-154.8,0,2622,0,198,
1.4600,-66.6,-130.2,-180.6,-10.5,-100.2,-120.9,-51.9,6.0,-222.3,-29.1,-160.5,1077.0,-198.3,1041.3,1967.4,279.6,0.9,2.7,-3235.5,-4269.0,-16.8,18.6,408.3,-156.6,0,2628,0,199,
1.4633,-65.1,-135.3,-183.6,-12.3,-85.5,-130.8,-57.3,7.8,-296.4,-37.8,-165.9,1041.9,-203.7,1037.1,1970.7,279.6,1.5,2.7,-3205.5,-4229.7,-16.8,49.5,411.6,-169.8,0,2634,0,200,
1.4667,-66.0,-130.5,-179.7,-10.8,-100.5,-111.6,-54.6,8.7,-666.9,-51.3,-166.8,1022.7,-204.3,1029.0,1940.7,259.5,0.9,2.4,-3214.8,-4105.2,-17.1,32.7,404.7,-146.4,0,2640,0,201,
1.4700,-66.9,-134.1,-186.3,-11.7,-103.8,-125.1,-58.5,10.2,-889.2,-1.2,-163.5,991.5,-198.9,1040.7,1944.3,271.8,0.9,2.4,-3222.3,-4166.7,-17.1,54.0,384.9,-168.0,0,2646,0,202,
1.4733,-68.1,-128.4,-166.5,-3.0,-88.8,-110.4,-56.7,15.9,-518.7,-59.7,-154.8,1028.1,-202.5,1030.8,1967.4,294.0,0.9,2.4,-3282.9,-4202.1,-16.8,19.5,392.1,-165.3,0,2652,0,203,
1.4767,-73.8,-146.1,-199.5,-26.1,-132.3,-140.1,-62.7,-6.9,-444.6,-11.7,-169.2,1046.4,-206.7,1033.8,1967.4,298.2,1.2,2.4,-3292.8,-4176.9,-16.8,33.6,396.3,-175.2,0,2658,0,204,
1.4800,-69.0,-134.7,-182.1,-12.3,-105.9,-90.3,-47.7,4.2,-148.2,-37.5,-180.3,1029.3,-207.3,1032.9,1974.3,292.5,1.2,3.0,-3396.6,-4053.3,-16.8,36.0,402.0,-166.5,0,2664,0,205,
1.4833,-72.3,-138.9,-192.0,-24.9,-127.8,-136.5,-61.8,-5.4,-666.9,-38.4,-173.1,968.4,-199.2,1044.9,1971.6,291.0,1.5,2.1,-3370.2,-4164.0,-17.1,54.0,392.4,-176.4,0,2670,0,206,
1.4867,-72.3,-133.8,-181.2,-15.0,-110.7,-111.0,-52.8,-0.9,-666.9,-41.1,-176.7,993.0,-210.9,1034.7,1979.4,294.6,1.2,2.7,-3398.4,-4093.5,-16.8,63.0,398.7,-157.5,0,2676,0,207,
1.4900,-71.4,-136.8,-182.1,-10.2,-104.7,-132.3,-51.9,4.2,-518.7,-31.8,-162.3,1035.9,-199.8,1031.7,1987.5,307.5,1.2,2.7,-3422.7,-4103.4,-16.8,62.7,399.3,-154.5,0,2682,0,208,
1.4933,-71.1,-139.2,-183.9,-17.7,-111.6,-119.1,-50.4,1.2,-148.2,-35.1,-157.8,1022.4,-201.6,1036.2,2002.5,306.6,1.2,2.4,-3512.7,-4124.1,-17.1,65.1,409.5,-141.6,0,2688,0,209,
1.4967,-69.0,-135.3,-187.5,-12.6,-96.0,-104.4,-46.5,6.6,-296.4,-22.5,-165.9,1000.5,-204.0,1042.2,2011.2,301.5,1.2,2.1,-3547.8,-4038.9,-16.8,44.7,410.1,-155.1,0,2694,0,210,
1.5000,-70.2,-139.8,-191.4,-19.2,-107.7,-121.8,-48.3,3.6,-963.3,-29.4,-164.1,948.0,-205.5,1038.9,2004.0,297.0,1.2,2.4,-3589.2,-4068.3,-17.1,49.2,408.0,-168.3,0,2700,0,211,
1.5033,-78.3,-145.5,-199.2,-26.4,-90.3,-119.7,-42.9,-3.3,-1037.4,-34.2,-195.6,926.1,-220.5,1032.0,2007.6,303.3,1.2,2.7,-3702.0,-3996.9,-16.8,75.0,406.5,-137.4,0,2706,0,212,
1.5067,-74.4,-136.2,-184.5,-18.6,-82.8,-133.5,-47.7,-2.1,-741.0,-31.8,-163.5,924.6,-208.8,1036.8,2026.8,311.7,0.9,2.4,-3704.1,-3976.8,-17.1,74.7,414.9,-142.8,0,2712,0,213,
1.5100,-76.2,-134.7,-185.7,-20.4,-98.7,-99.0,-41.4,-2.7,-518.7,-35.7,-176.1,1053.6,-210.9,1035.3,2028.0,321.6,1.2,2.4,-3772.2,-3954.3,-17.1,42.9,414.6,-165.0,0,2718,0,214,
1.5133,-69.9,-126.9,-177.6,-3.0,-64.5,-119.4,-51.0,6.0,-370.5,-6.6,-160.5,1076.7,-204.0,1036.2,2018.1,319.8,1.5,2.7,-3758.1,-3931.2,-16.8,49.5,393.3,-141.3,0,2724,0,215,
1.5167,-77.1,-138.6,-190.2,-20.7,-120.0,-103.2,-48.0,1.5,-889.2,-57.6,-163.8,1040.7,-212.1,1028.4,1992.6,307.8,1.2,2.7,-3782.1,-3908.1,-17.1,62.7,406.2,-132.6,0,2730,0,216,
1.5200,-78.0,-138.6,-187.2,-16.8,-86.7,-121.5,-53.1,-0.6,-1185.6,-33.9,-167.4,1017.3,-216.6,1026.0,1992.6,315.0,1.2,2.1,-3800.4,-3976.8,-16.5,64.8,396.3,-152.1,0,2736,0,217,
1.5233,-74.7,-142.5,-212.1,-42.9,-146.7,-136.5,-50.7,-11.4,-889.2,-12.9,-187.2,1010.7,-214.5,1038.0,2045.4,334.2,1.2,2.1,-3775.5,-4022.7,-16.8,77.4,410.7,-140.4,0,2742,0,218,
1.5267,-67.2,-138.0,-196.2,-21.9,-99.6,-105.9,-50.1,0.6,-518.7,-18.0,-185.1,1000.5,-206.1,1037.4,2052.9,328.8,1.2,2.7,-3758.1,-4033.5,-16.8,32.1,396.3,-156.9,0,2748,0,219,
1.5300,-73.5,-146.7,-195.3,-12.9,-81.9,-109.8,-48.6,2.7,-518.7,-51.9,-170.7,909.6,-225.3,1023.3,2026.8,320.1,1.2,2.4,-3717.6,-4035.3,-16.8,60.6,401.7,-143.4,0,2754,0,220,
1.5333,-64.2,-129.9,-179.4,-3.9,-86.1,-82.5,-42.9,10.5,-1037.4,-33.6,-154.8,963.6,-210.3,1038.6,2030.1,319.2,1.2,2.4,-3669.9,-3936.3,-16.8,49.2,398.7,-161.1,0,2760,0,221,
1.5367,-71.7,-146.1,-199.5,-25.5,-106.5,-136.8,-54.6,-5.1,-1185.6,-46.5,-189.6,996.3,-226.8,1035.3,2034.0,315.0,1.2,2.4,-3702.3,-4032.3,-17.1,85.5,410.1,-135.0,0,2766,0,222,
1.5400,-66.9,-128.7,-177.6,-12.0,-79.2,-107.1,-47.7,12.3,-741.0,-29.1,-180.0,1069.2,-218.7,1040.7,2040.3,330.6,1.2,2.1,-3677.7,-3937.5,-16.8,51.6,414.6,-148.2,0,2772,0,223,
1.5433,-69.3,-133.2,-180.6,-11.4,-82.2,-116.4,-47.4,11.4,-592.8,-32.1,-155.1,1041.9,-207.0,1040.7,2020.5,311.1,0.9,2.1,-3632.1,-3996.3,-16.8,52.8,407.7,-147.0,0,2778,0,224,
1.5467,-68.4,-135.6,-187.2,-26.4,-125.4,-112.8,-51.0,3.9,-444.6,-35.4,-180.6,1033.2,-233.7,1041.0,2036.1,308.7,0.9,2.4,-3668.7,-4032.9,-16.8,46.8,418.5,-150.6,0,2784,0,225,
1.5500,-62.4,-127.2,-173.7,-10.5,-91.5,-108.3,-53.1,17.7,-1037.4,-45.9,-161.1,1063.2,-217.5,1035.6,2001.3,286.2,1.2,2.4,-3660.6,-3991.2,-16.8,50.4,402.0,-152.7,0,2790,0,226,
1.5533,-64.5,-127.2,-181.2,-11.7,-107.4,-93.6,-43.5,15.3,-1185.6,-35.4,-169.2,1075.5,-215.7,1041.6,2006.7,290.4,1.2,2.7,-3744.9,-4019.1,-16.8,67.2,412.5,-132.3,0,2796,0,227,
1.5567,-64.8,-132.6,-187.2,-6.3,-68.1,-109.2,-43.8,10.5,-889.2,-35.4,-172.8,1023.3,-224.4,1040.1,1996.5,300.0,1.2,2.4,-3765.6,-4031.1,-17.1,62.1,426.0,-139.2,0,2802,0,228,
1.5600,-61.8,-124.8,-177.3,-14.1,-109.5,-118.8,-51.0,2.7,-741.0,-10.2,-165.3,1054.2,-207.9,1053.3,2007.0,298.8,1.2,2.7,-3750.6,-4038.9,-17.1,56.4,413.4,-147.0,0,2808,0,229,
1.5633,-66.0,-128.4,-179.1,-3.0,-83.7,-84.6,-44.1,8.1,-592.8,-31.5,-166.5,1013.1,-215.7,1055.7,2019.0,300.3,0.9,2.4,-3705.9,-4017.3,-17.4,39.9,429.0,-178.5,0,2814,0,230,
1.5667,-60.3,-128.1,-181.8,-11.7,-105.0,-127.5,-44.4,6.9,-1259.7,-25.2,-176.7,976.5,-210.9,1055.4,2001.0,279.9,0.9,2.4,-3698.4,-4133.4,-16.8,75.0,429.3,-147.3,0,2820,0,231,
1.5700,-66.0,-129.3,-180.6,-6.0,-85.8,-80.7,-41.4,10.2,-1333.8,-33.9,-167.1,1018.5,-216.3,1051.5,1997.7,274.2,1.2,2.4,-3684.3,-4085.7,-17.1,50.1,428.7,-153.3,0,2826,0,232,
1.5733,-62.7,-126.0,-175.8,1.2,-80.7,-105.9,-35.4,14.7,-889.2,-24.3,-171.6,988.8,-214.8,1050.3,2004.9,288.0,1.2,2.4,-3691.5,-4128.0,-17.1,75.6,433.8,-120.0,0,2832,0,233,
1.5767,-62.7,-126.9,-176.7,13.8,-12.0,-91.2,-39.9,19.8,-889.2,-41.1,-176.7,921.6,-227.1,1055.7,2020.5,299.4,1.2,2.7,-3672.3,-4050.9,-16.8,47.1,435.6,-147.9,0,2838,0,234,
1.5800,-66.3,-128.4,-185.7,-10.8,-65.1,-111.3,-44.7,9.0,-815.1,-30.6,-193.2,938.4,-231.0,1059.0,2033.4,305.4,0.9,2.4,-3676.2,-4202.1,-17.1,63.6,441.9,-148.5,0,2844,0,235,
1.5833,-64.5,-130.2,-180.3,5.4,-81.0,-99.9,-42.0,16.8,-1333.8,-42.3,-184.5,1056.3,-227.1,1048.5,2007.3,274.2,1.2,2.4,-3737.7,-4061.4,-16.8,51.3,438.9,-141.6,0,2850,0,236,
1.5867,-59.1,-121.8,-168.6,3.0,-98.1,-110.1,-44.4,18.6,-1630.2,-36.6,-166.8,1071.9,-213.6,1053.3,1999.2,263.4,1.2,2.7,-3751.5,-4117.2,-17.1,72.0,437.1,-142.8,0,2856,0,237,
1.5900,-62.7,-124.8,-171.0,6.0,-80.1,-104.4,-46.2,18.3,-1111.5,-18.0,-169.2,1027.2,-213.6,1055.4,2011.5,261.6,1.2,2.4,-3804.0,-4137.6,-16.8,57.6,438.3,-152.4,0,2862,0,238,
1.5933,-59.7,-126.6,-176.1,4.5,-84.3,-100.2,-41.1,21.0,-1037.4,-46.5,-173.7,1052.7,-214.5,1056.3,2028.6,281.4,1.5,2.4,-3784.2,-4178.7,-16.8,67.8,438.0,-156.3,0,2868,0,239,
1.5967,-63.9,-136.2,-185.1,-3.3,-89.1,-111.9,-44.4,17.4,-815.1,-43.8,-191.1,1005.0,-227.1,1051.5,2038.2,278.1,0.9,2.4,-3915.3,-4216.2,-16.8,73.2,444.3,-145.8,0,2874,0,240,
1.6000,-66.0,-130.8,-176.4,8.1,-59.4,-100.8,-41.1,29.1,-1482.0,-32.1,-189.6,965.4,-221.1,1049.4,2024.4,265.5,0.6,2.1,-3117.0,-4219.8,-17.1,50.7,442.5,-147.6,0,2880,0,241,
1.6033,-65.4,-130.2,-174.0,9.3,-81.0,-98.1,-37.8,30.3,-1630.2,-18.6,-183.3,1044.0,-217.5,1050.3,2009.7,257.4,1.2,2.4,-2745.9,-4191.9,-17.1,79.2,448.8,-139.8,0,2886,0,242,
1.6067,-63.0,-120.6,-167.7,13.2,-73.5,-90.3,-33.9,33.6,-1407.9,-8.4,-177.3,1085.4,-205.2,1063.8,2030.7,269.4,1.2,2.4,-2436.6,-4193.1,-17.1,64.8,450.6,-143.1,0,2892,0,243,
1.6100,-62.1,-123.6,-168.0,12.0,-80.4,-93.3,-33.3,31.5,-963.3,-11.7,-169.8,1068.3,-209.4,1053.0,2034.9,275.7,0.9,2.7,-3049.2,-4277.7,-17.4,79.2,456.3,-138.0,0,2898,0,244,
1.6133,-65.1,-125.1,-170.1,12.6,-65.1,-86.1,-37.5,31.5,-963.3,-13.5,-178.2,1054.8,-217.2,1049.7,2042.7,273.9,1.2,2.4,-3354.0,-4211.7,-17.1,77.4,453.3,-148.2,0,2904,0,245,
1.6167,-61.5,-126.6,-170.1,8.1,-86.7,-101.7,-41.7,30.0,-1407.9,-21.3,-168.9,1018.5,-213.6,1056.0,2031.6,255.9,1.2,2.1,-3352.2,-4233.9,-17.4,84.3,449.4,-134.4,0,2910,0,246,
1.6200,-59.1,-124.5,-174.9,3.9,-70.8,-97.5,-45.3,23.4,-1556.1,-27.6,-176.1,996.6,-214.8,1054.5,2040.6,264.9,1.2,2.7,-3368.1,-4271.4,-16.8,76.5,446.1,-144.6,0,2916,0,247,
1.6233,-63.6,-132.6,-183.6,1.8,-75.0,-100.8,-41.7,16.5,-1407.9,-15.0,-188.1,998.7,-221.1,1050.0,2052.9,267.6,1.2,2.1,-3415.8,-4260.3,-17.1,80.7,455.1,-143.4,0,2922,0,248,
1.6267,-70.8,-138.0,-184.2,-3.9,-79.2,-87.6,-42.9,16.8,-1333.8,-25.5,-189.9,982.2,-225.0,1046.7,2037.0,260.1,0.9,2.1,-3141.3,-4243.8,-16.8,74.7,452.7,-148.2,0,2928,0,249,
1.6300,-68.4,-132.9,-175.2,6.0,-59.7,-105.6,-44.4,24.3,-1111.5,-25.5,-191.7,936.0,-221.4,1048.2,2039.1,272.7,1.2,2.4,-2984.1,-4250.4,-17.1,78.3,442.8,-138.6,0,2934,0,250,
1.6333,-63.3,-133.5,-183.0,2.4,-68.7,-93.6,-35.7,23.1,-1556.1,-25.5,-187.2,990.6,-221.1,1054.2,2019.3,266.4,1.5,2.1,-2984.7,-4296.0,-17.1,61.5,451.5,-157.2,0,2940,0,251,
1.6367,-68.1,-147.6,-200.4,-15.6,-95.7,-112.2,-42.0,11.1,-1778.4,-32.1,-216.6,1008.3,-234.6,1045.5,2028.6,262.8,0.9,2.4,-2884.8,-4301.1,-16.8,69.9,460.2,-159.3,0,2946,0,252,
1.6400,-69.9,-144.3,-195.0,-11.4,-88.2,-97.8,-42.6,14.1,-1333.8,-39.3,-208.8,1039.2,-237.9,1034.4,2024.4,258.9,1.2,2.1,-2872.2,-4308.9,-16.8,67.2,455.4,-149.4,0,2952,0,253,
1.6433,-67.2,-139.5,-188.1,-6.9,-82.5,-85.8,-40.5,16.8,-1259.7,-10.8,-199.8,1044.3,-225.9,1041.9,2028.3,246.9,0.9,2.7,-2715.0,-4310.7,-16.5,57.9,443.1,-152.1,0,2958,0,254,
1.6467,-65.1,-139.8,-189.0,-13.2,-100.8,-115.5,-43.5,10.5,-1037.4,-32.1,-202.5,1029.0,-236.1,1041.0,2024.4,252.3,1.2,2.4,-2257.2,-4371.3,-17.1,64.5,445.8,-151.5,0,2964,0,255,
1.6500,-69.6,-150.3,-197.7,-6.0,-65.4,-100.5,-40.8,15.0,-1556.1,-54.3,-214.5,965.1,-243.6,1037.4,2013.9,247.2,1.2,2.7,-2162.1,-4391.7,-16.8,86.1,451.5,-150.9,0,2970,0,0,
1.6533,-67.2,-140.1,-193.8,-8.1,-86.7,-109.5,-41.4,18.6,-1852.5,-25.2,-211.8,981.6,-230.4,1046.4,2015.1,255.6,0.9,2.4,-2117.1,-4466.1,-17.1,77.7,452.7,-155.4,0,2976,0,1,
1.6567,-67.2,-139.2,-190.8,-5.4,-84.3,-101.7,-40.2,20.4,-1556.1,-27.9,-202.2,995.4,-234.0,1044.9,2021.4,259.8,1.5,2.4,-2106.0,-4453.8,-16.8,51.9,452.7,-155.7,0,2982,0,2,
1.6600,-69.3,-141.9,-198.3,-10.2,-92.7,-108.9,-41.4,16.5,-1259.7,-16.8,-225.6,987.9,-239.4,1045.2,2020.5,255.6,1.5,2.1,-2124.6,-4423.8,-17.1,53.7,439.2,-162.6,0,2988,0,3,
1.6633,-69.3,-138.6,-191.1,-2.1,-85.5,-100.8,-44.1,24.6,-1259.7,-42.9,-214.5,1008.9,-242.7,1040.4,2013.9,261.9,1.2,2.1,-2150.7,-4389.6,-16.8,73.8,434.1,-146.1,0,2994,0,4,
1.6667,-65.1,-133.2,-180.3,-0.6,-84.0,-105.3,-44.1,24.6,-1482.0,-18.9,-209.7,1001.1,-234.0,1047.9,2013.3,255.0,1.2,2.7,-2192.7,-4405.2,-17.1,71.7,433.8,-159.0,0,3000,0,5,
1.6700,-71.4,-147.0,-205.5,-16.2,-85.5,-109.5,-48.9,11.4,-1778.4,-53.1,-234.3,990.6,-255.9,1042.8,2031.0,254.7,0.9,2.4,-2291.1,-4408.2,-17.1,62.7,436.8,-165.6,0,3006,0,6,
1.6733,-62.7,-139.5,-192.6,-5.4,-78.6,-106.2,-45.6,15.3,-1556.1,-19.2,-216.0,988.8,-237.3,1050.6,2022.6,252.0,1.2,2.4,-2262.0,-4414.2,-17.1,57.6,442.8,-159.3,0,3012,0,7,
1.6767,-69.6,-142.8,-199.5,-0.3,-50.4,-88.5,-42.9,14.4,-1556.1,-44.7,-235.2,910.5,-252.3,1039.5,2020.2,269.1,0.9,2.1,-2276.4,-4405.2,-16.8,90.3,451.8,-141.0,0,3018,0,8,
1.6800,-62.1,-133.8,-191.1,-6.3,-68.4,-97.8,-40.2,21.6,-1333.8,-11.1,-222.9,930.0,-239.1,1056.6,2033.7,281.1,0.9,2.4,-2243.4,-4408.2,-16.8,61.2,443.4,-156.0,0,3024,0,9,
1.6833,-63.9,-145.8,-194.7,-1.2,-72.6,-94.5,-40.5,16.5,-1778.4,-38.4,-228.6,1023.6,-249.9,1047.0,2015.7,261.0,1.5,2.7,-2268.3,-4383.0,-16.8,96.0,445.5,-140.4,0,3030,0,10,
1.6867,-60.6,-142.5,-198.3,-9.0,-74.1,-93.9,-37.8,19.8,-1926.6,-32.7,-232.5,1066.5,-245.1,1044.9,2007.6,258.3,0.9,2.4,-2323.5,-4369.8,-17.1,78.3,438.6,-140.1,0,3036,0,11,
1.6900,-59.1,-132.6,-189.9,-0.9,-81.9,-98.1,-38.7,23.4,-1778.4,-3.3,-223.5,1109.1,-235.5,1045.8,2008.8,259.5,1.2,2.4,-2323.5,-4337.1,-16.5,76.5,433.2,-147.0,0,3042,0,12,
1.6933,-56.4,-140.7,-204.9,-13.8,-100.8,-111.6,-44.4,16.8,-1482.0,-36.0,-244.2,1087.5,-251.1,1053.3,2037.6,267.3,1.2,2.4,-2342.1,-4377.3,-16.5,73.2,448.5,-161.4,0,3048,0,13,
1.6967,-57.3,-140.1,-198.9,-11.1,-95.7,-100.8,-45.9,16.2,-1482.0,-26.4,-241.5,1057.5,-247.8,1046.4,2023.2,270.3,1.2,2.4,-2343.6,-4421.1,-16.8,39.9,433.5,-165.6,0,3054,0,14,
1.7000,-59.1,-137.7,-194.1,-5.1,-78.6,-86.7,-45.3,20.7,-1704.3,-37.8,-242.1,1017.3,-253.5,1036.8,1978.8,240.9,1.2,2.7,-2373.9,-4440.9,-16.8,70.2,430.2,-150.6,0,3060,0,15,
1.7033,-61.8,-142.5,-197.1,-3.9,-65.1,-111.9,-44.1,18.6,-1852.5,-31.8,-252.9,1005.9,-252.3,1041.6,2007.0,244.8,1.2,2.1,-2414.7,-4393.5,-16.8,66.3,425.7,-149.1,0,3066,0,16,
1.7067,-62.7,-140.7,-191.4,-3.3,-78.6,-99.9,-46.2,17.4,-1630.2,-37.5,-247.5,995.1,-256.5,1043.7,2020.8,246.3,0.9,2.4,-2413.5,-4413.3,-17.1,68.4,424.8,-159.0,0,3072,0,17,
1.7100,-65.1,-146.4,-195.0,-0.9,-69.0,-105.3,-45.9,16.8,-1704.3,-35.1,-261.0,979.5,-259.2,1040.7,2026.2,243.0,1.2,2.7,-2427.9,-4387.2,-16.5,52.8,424.2,-156.3,0,3078,0,18,
1.7133,-70.8,-157.5,-200.1,0.6,-64.2,-99.9,-47.1,15.0,-1185.6,-53.4,-281.7,918.9,-278.4,1031.1,2012.7,267.0,1.2,2.4,-2460.0,-4342.8,-17.1,60.6,432.9,-153.9,0,3084,0,19,
1.7167,-68.7,-150.9,-200.1,-0.6,-72.0,-95.1,-43.5,15.9,-1778.4,-45.0,-273.0,973.2,-270.0,1033.5,1996.5,259.2,1.2,2.4,-2496.3,-4342.2,-16.8,63.0,426.9,-150.3,0,3090,0,20,
1.7200,-67.5,-150.0,-193.5,-4.8,-84.3,-97.8,-43.2,13.5,-1778.4,-34.2,-261.3,1052.1,-267.9,1034.1,1990.8,248.4,1.2,2.4,-2488.2,-4213.5,-17.1,50.1,432.0,-160.2,0,3096,0,21,
1.7233,-66.9,-148.5,-194.7,-9.3,-87.0,-97.5,-36.0,15.6,-1630.2,-33.6,-262.8,1080.9,-269.4,1037.1,2001.3,271.5,1.2,2.4,-2504.4,-4211.7,-16.8,78.3,440.4,-143.4,0,3102,0,22,
1.7267,-65.1,-151.5,-199.8,-4.5,-72.3,-99.0,-37.8,16.8,-1333.8,-30.3,-277.5,1035.0,-269.7,1038.9,2016.0,268.8,1.2,2.1,-2515.5,-4249.2,-16.8,68.7,432.6,-144.9,0,3108,0,23,
1.7300,-61.8,-144.6,-196.8,2.1,-66.6,-85.2,-32.7,22.5,-1185.6,-38.4,-271.2,984.9,-265.2,1046.7,2023.2,264.6,1.2,2.7,-2526.0,-4215.6,-16.8,76.2,436.2,-131.1,0,3114,0,24,
1.7333,-62.7,-155.1,-201.6,1.8,-50.4,-88.2,-33.0,20.7,-1852.5,-42.3,-271.5,996.3,-269.1,1043.1,2016.9,259.2,1.5,2.4,-2551.8,-4101.6,-17.1,69.0,444.9,-151.8,0,3120,0,25,
1.7367,-65.7,-151.2,-197.4,0.9,-77.1,-94.8,-40.8,21.9,-1704.3,-29.7,-262.8,1129.8,-272.4,1037.4,2009.7,251.4,1.2,2.4,-2557.5,-4057.8,-17.1,65.7,433.5,-155.1,0,3126,0,26,
1.7400,-72.0,-159.6,-210.9,-8.4,-85.5,-99.0,-38.7,16.8,-1482.0,-41.7,-291.9,1033.5,-284.7,1027.5,2025.3,252.9,0.9,2.4,-2598.3,-4059.3,-16.8,58.8,444.6,-154.2,0,3132,0,27,
1.7433,-68.7,-151.8,-201.6,0.0,-68.7,-84.6,-36.0,26.4,-1333.8,-47.7,-281.4,1086.0,-279.3,1027.2,2021.7,254.4,1.2,2.4,-2585.7,-4038.9,-16.8,74.4,447.3,-152.1,0,3138,0,28,
1.7467,-61.8,-147.3,-197.7,-1.5,-90.6,-96.9,-40.2,23.4,-1185.6,-21.3,-278.1,1110.6,-270.6,1041.0,2039.1,246.9,1.2,2.4,-2593.5,-4035.3,-16.8,60.6,433.5,-159.0,0,3144,0,29,
1.7500,-63.6,-145.5,-199.5,-2.4,-91.8,-95.7,-37.5,25.8,-1556.1,-24.3,-270.9,1107.6,-268.5,1044.0,2026.8,247.8,0.9,2.4,-2593.5,-3891.3,-16.8,80.7,439.5,-143.4,0,3150,0,30,
1.7533,-64.5,-145.5,-192.3,6.0,-75.9,-82.8,-35.4,31.5,-1704.3,-39.0,-264.6,1075.5,-270.3,1038.9,2018.7,258.0,1.2,2.4,-2582.7,-3813.3,-17.1,89.4,441.3,-125.7,0,3156,0,31,
1.7567,-59.1,-140.1,-191.7,2.4,-82.5,-95.1,-36.9,26.1,-1556.1,-22.5,-271.5,1031.1,-261.6,1044.6,2027.1,271.2,0.9,2.4,-2585.7,-3835.8,-16.8,66.3,440.4,-146.1,0,3162,0,32,
1.7600,-64.5,-150.9,-210.6,-12.0,-93.3,-106.8,-42.3,21.6,-1407.9,-41.7,-313.5,1006.2,-283.8,1038.6,2039.4,280.2,1.2,2.4,-2629.8,-3901.5,-17.1,43.8,447.6,-176.7,0,3168,0,33,
1.7633,-66.9,-153.6,-211.5,-8.7,-72.3,-95.4,-41.7,21.6,-1333.8,-42.0,-318.3,1017.9,-284.1,1033.2,2043.0,267.6,0.9,2.4,-2640.3,-3979.8,-16.8,66.6,438.6,-157.2,0,3174,0,34,
1.7667,-64.2,-147.6,-196.8,12.3,-46.8,-83.7,-38.1,27.0,-1407.9,-28.5,-287.1,1003.5,-281.4,1035.9,2029.8,259.2,1.5,2.4,-2625.0,-3871.8,-17.1,74.1,435.0,-147.9,0,3180,0,35,
1.7700,-60.9,-149.7,-192.0,6.6,-58.2,-85.2,-35.4,27.3,-1630.2,-44.7,-274.8,1068.6,-277.2,1041.9,2045.4,264.3,0.9,2.4,-2610.9,-3816.6,-17.1,81.9,436.2,-140.1,0,3186,0,36,
1.7733,-58.2,-146.7,-198.0,-6.3,-83.1,-96.9,-37.8,23.4,-1333.8,-33.9,-281.1,1051.2,-278.4,1047.6,2064.6,278.7,0.9,2.4,-2613.9,-3773.7,-16.8,63.9,431.4,-153.9,0,3192,0,37,
1.7767,-63.6,-150.6,-204.6,-8.4,-80.7,-93.0,-36.6,21.3,-1407.9,-40.8,-296.4,1067.1,-285.0,1038.0,2053.5,280.5,0.9,2.4,-2608.5,-3782.1,-16.8,83.4,437.7,-142.5,0,3198,0,38,
1.7800,-64.8,-147.9,-201.6,-2.1,-79.2,-87.9,-37.5,24.0,-889.2,-39.9,-284.1,1068.9,-284.7,1034.1,2046.0,264.6,0.9,2.4,-2620.5,-3731.4,-16.8,83.4,435.9,-133.5,0,3204,0,39,
1.7833,-61.2,-151.2,-203.4,-0.6,-74.7,-91.8,-35.7,26.7,-1407.9,-41.4,-292.8,1080.9,-286.2,1041.6,2052.9,256.8,0.6,2.4,-2631.9,-3734.4,-17.1,65.4,430.8,-143.4,0,3210,0,40,
1.7867,-64.2,-156.0,-207.9,-1.8,-73.8,-83.4,-29.1,25.2,-1482.0,-45.6,-296.7,1085.1,-295.5,1036.5,2071.2,279.3,0.9,2.4,-2670.3,-3725.1,-16.8,96.6,449.4,-134.4,0,3216,0,41,
1.7900,-65.1,-152.4,-205.2,2.1,-68.4,-83.1,-30.6,23.1,-1333.8,-37.5,-274.2,1098.0,-286.8,1040.7,2067.9,279.3,0.9,2.4,-2653.5,-3722.1,-16.8,83.7,446.7,-146.7,0,3222,0,42,
1.7933,-70.8,-152.7,-204.9,-0.9,-68.7,-78.9,-27.9,24.3,-1185.6,-58.8,-286.2,1076.1,-301.8,1029.9,2056.5,265.2,1.5,2.1,-2635.5,-3692.4,-16.8,89.4,453.6,-129.0,0,3228,0,43,
1.7967,-77.1,-165.3,-224.1,-16.5,-78.0,-94.5,-39.3,13.5,-1111.5,-73.2,-323.1,1056.9,-317.7,1029.0,2070.3,258.0,1.2,2.7,-2651.4,-3750.3,-16.8,73.5,438.6,-143.1,0,3234,0,44,
1.8000,-79.2,-168.9,-224.4,-12.6,-63.6,-81.3,-31.5,21.3,-1333.8,-57.3,-318.0,1017.9,-316.8,1021.5,2055.0,253.8,1.5,2.4,-2652.9,-3771.6,-16.8,87.9,451.2,-142.2,0,3240,0,45,
1.8033,-71.7,-166.8,-223.8,-12.0,-63.0,-87.3,-31.8,19.5,-1333.8,-69.6,-323.4,1048.2,-313.5,1026.3,2079.0,270.0,1.2,2.4,-2676.9,-3750.3,-16.8,55.8,450.9,-145.5,0,3246,0,46,
1.8067,-74.1,-168.9,-220.8,-7.2,-84.6,-88.5,-31.8,20.1,-1185.6,-72.9,-321.6,1056.0,-321.6,1025.1,2085.6,265.5,1.2,2.1,-2675.1,-3822.3,-16.8,45.0,440.7,-143.1,0,3252,0,47,
1.8100,-77.7,-170.1,-218.4,-4.8,-64.8,-87.6,-27.6,22.8,-1185.6,-83.7,-324.3,1048.8,-327.9,1011.3,2048.4,259.5,1.2,2.4,-2686.2,-3749.7,-16.8,74.7,445.5,-135.3,0,3258,0,48,
1.8133,-78.6,-171.0,-228.6,-15.3,-90.9,-99.6,-35.7,16.8,-963.3,-71.1,-329.1,1054.2,-328.5,1015.8,2061.0,276.6,0.6,2.4,-2695.8,-3712.8,-16.8,60.9,433.2,-147.6,0,3264,0,49,
1.8167,-79.2,-175.8,-233.7,-26.4,-90.6,-107.7,-37.2,11.4,-1259.7,-80.7,-339.6,1027.2,-331.8,1012.5,2075.4,266.7,0.9,2.4,-2722.5,-3765.3,-16.8,39.9,430.5,-163.5,0,3270,0,50,
1.8200,-76.8,-171.0,-224.1,-14.1,-71.4,-98.4,-38.1,19.5,-1482.0,-64.8,-324.9,1019.7,-329.4,1006.8,2053.8,257.4,1.5,2.7,-2716.2,-3718.8,-17.1,53.7,423.0,-157.2,0,3276,0,51,
1.8233,-75.0,-170.1,-225.9,-18.0,-71.7,-96.6,-39.6,16.5,-1333.8,-76.2,-326.4,1074.9,-328.2,1009.2,2067.3,266.4,0.9,2.4,-2712.3,-3762.3,-16.8,54.0,429.0,-159.9,0,3282,0,52,
1.8267,-77.1,-171.3,-230.4,-20.1,-87.3,-99.6,-40.2,19.8,-1111.5,-81.0,-341.4,1109.7,-337.5,1011.6,2064.0,271.8,1.2,2.1,-2728.5,-3786.0,-17.1,67.5,425.7,-161.7,0,3288,0,53,
1.8300,-74.4,-165.0,-217.5,-9.3,-71.7,-94.8,-37.8,27.0,-963.3,-73.2,-320.7,1088.4,-328.5,1017.6,2077.8,276.9,1.2,2.4,-2693.4,-3761.7,-17.1,54.0,424.5,-153.0,0,3294,0,54,
1.8333,-72.0,-161.7,-215.4,-1.8,-64.2,-90.0,-32.4,31.8,-1259.7,-56.7,-320.7,1041.9,-323.4,1021.5,2051.7,272.4,1.2,2.1,-2698.5,-3747.6,-17.1,61.5,428.1,-155.1,0,3300,0,55,
1.8367,-67.8,-164.4,-214.5,-3.3,-69.9,-92.4,-35.1,32.4,-1407.9,-67.5,-331.2,1065.6,-325.8,1023.9,2054.1,276.6,0.9,2.7,-2717.1,-3762.6,-16.8,59.1,424.8,-158.4,0,3306,0,56,
1.8400,-68.4,-166.5,-220.2,-1.8,-67.8,-89.1,-35.1,34.5,-1259.7,-80.1,-331.8,1095.0,-330.6,1028.4,2042.7,276.9,1.2,2.4,-2687.4,-3798.0,-17.1,69.0,428.4,-153.0,0,3312,0,57,
1.8433,-64.2,-153.9,-204.3,8.1,-48.6,-78.9,-30.6,40.5,-1185.6,-57.3,-310.8,1069.8,-312.3,1029.0,2058.6,288.3,1.2,2.4,-2631.9,-3784.8,-17.1,60.3,432.0,-145.2,0,3318,0,58,
1.8467,-57.0,-148.8,-201.9,12.9,-58.5,-82.8,-29.1,41.1,-963.3,-59.4,-312.0,1120.8,-312.0,1029.0,2056.5,264.9,0.9,2.4,-2578.5,-3782.7,-16.8,79.8,436.5,-129.3,0,3324,0,59,
1.8500,-63.3,-157.8,-206.1,-3.0,-70.2,-83.1,-32.7,32.1,-1333.8,-43.8,-317.1,1052.7,-317.1,1028.7,2046.0,265.5,0.9,2.1,-2579.4,-3764.7,-16.8,67.2,432.9,-153.9,0,3330,0,60,
1.8533,-63.9,-161.4,-217.2,-6.0,-62.1,-85.8,-34.5,23.1,-1482.0,-60.9,-325.8,1076.1,-325.8,1032.9,2045.7,272.1,1.2,2.4,-2589.3,-3790.8,-16.8,81.9,426.3,-130.2,0,3336,0,61,
1.8567,-62.4,-154.2,-212.7,-12.9,-82.2,-102.6,-39.3,18.3,-1407.9,-29.4,-320.7,1080.3,-315.9,1037.1,2067.0,280.2,1.2,2.1,-2556.3,-3836.7,-16.8,75.0,423.6,-158.1,0,3342,0,62,
1.8600,-63.9,-161.4,-220.8,-13.5,-68.7,-95.4,-38.4,15.0,-1333.8,-54.3,-328.2,1145.1,-327.0,1034.4,2058.3,269.7,0.9,2.1,-2547.3,-3831.3,-17.1,68.1,434.1,-155.7,0,3348,0,63,
1.8633,-69.3,-159.9,-218.7,-3.0,-50.4,-88.8,-36.3,19.2,-1111.5,-51.6,-324.3,1083.6,-327.0,1026.6,2049.6,255.9,1.5,2.4,-2511.9,-3790.8,-17.1,70.2,442.2,-142.5,0,3354,0,64,
1.8667,-71.1,-156.3,-209.7,1.5,-63.9,-83.4,-36.0,23.4,-1259.7,-57.0,-310.2,1141.2,-324.9,1023.0,2028.6,249.0,1.2,2.4,-2492.4,-3765.9,-17.1,75.9,441.3,-138.6,0,3360,0,65,
1.8700,-74.1,-165.3,-223.5,-12.6,-67.5,-97.8,-41.4,14.4,-1482.0,-57.6,-324.9,1116.6,-333.6,1021.2,2032.2,259.8,1.2,2.7,-2475.6,-3851.7,-17.1,67.2,426.9,-153.3,0,3366,0,66,
1.8733,-77.7,-170.4,-222.9,-10.5,-67.2,-99.0,-40.5,15.3,-1482.0,-60.6,-330.6,1188.3,-339.0,1019.1,2016.6,246.9,1.2,2.4,-2538.9,-3853.8,-17.1,71.7,420.3,-154.2,0,3372,0,67,
1.8767,-75.6,-172.8,-228.0,-9.0,-76.2,-96.0,-37.5,14.1,-1407.9,-55.8,-325.5,1204.2,-341.7,1018.8,2034.0,252.0,1.2,2.1,-2723.4,-3841.5,-17.1,65.4,426.9,-151.2,0,3378,0,68,
1.8800,-77.7,-172.5,-225.0,-13.8,-73.2,-89.7,-38.7,16.8,-1185.6,-65.1,-336.6,1185.0,-341.4,1020.6,2048.4,256.5,1.2,2.4,-2701.2,-3820.8,-17.4,79.8,431.4,-145.5,0,3384,0,69,
1.8833,-72.3,-156.3,-211.2,4.8,-41.1,-78.3,-36.9,25.8,-1407.9,-41.7,-311.4,1068.6,-325.8,1024.5,2017.8,240.0,1.5,2.4,-2601.6,-3877.8,-16.8,84.3,423.0,-141.0,0,3390,0,70,
1.8867,-75.0,-157.2,-214.2,9.6,-30.9,-80.4,-37.2,24.0,-1704.3,-53.1,-319.5,1114.5,-328.8,1025.4,2024.1,232.5,0.6,2.4,-2651.7,-3876.6,-16.8,66.0,433.2,-141.0,0,3396,0,71,
1.8900,-78.0,-170.4,-226.5,-12.9,-70.5,-89.7,-36.0,13.2,-1704.3,-52.8,-331.2,1224.3,-342.0,1017.6,2018.7,242.4,0.9,2.4,-2691.0,-3849.6,-17.1,75.0,438.0,-155.1,0,3402,0,72,
1.8933,-78.6,-168.6,-228.9,-17.1,-76.8,-93.6,-37.2,14.1,-1630.2,-54.0,-331.8,1170.9,-338.7,1019.7,2026.8,240.3,0.9,2.4,-2599.2,-3858.3,-17.1,77.7,436.8,-147.3,0,3408,0,73,
1.8967,-78.3,-170.7,-234.9,-22.8,-83.1,-99.0,-40.5,7.5,-1259.7,-65.4,-339.6,1146.6,-345.9,1018.5,2030.7,234.9,0.9,3.0,-2441.4,-3891.6,-17.1,84.0,432.9,-159.3,0,3414,0,74,
1.9000,-73.8,-160.8,-229.5,-13.8,-66.3,-87.9,-36.0,15.9,-1630.2,-57.6,-321.6,1141.8,-341.4,1018.5,1999.5,206.4,0.9,2.4,-2231.4,-3913.8,-16.8,71.7,435.9,-146.4,0,3420,0,75,
1.9033,-68.1,-155.4,-223.8,-7.5,-53.4,-84.3,-37.5,14.1,-1926.6,-42.6,-320.4,1218.6,-328.5,1033.8,2009.1,216.0,1.2,2.4,-2168.7,-3874.2,-17.1,81.9,441.0,-155.1,0,3426,0,76,
1.9067,-68.7,-155.7,-224.1,-11.1,-66.6,-87.9,-36.6,15.6,-1704.3,-47.7,-314.4,1206.0,-327.0,1024.2,2004.3,206.7,1.5,2.7,-2133.3,-3866.1,-16.8,86.7,452.7,-142.5,0,3432,0,77,
1.9100,-65.4,-153.6,-225.6,-6.9,-51.9,-74.4,-30.6,20.7,-1778.4,-45.6,-331.5,1159.2,-329.4,1030.8,2019.3,210.9,0.9,2.7,-2166.3,-3924.9,-17.1,85.2,451.8,-127.8,0,3438,0,78,
1.9133,-61.2,-149.1,-221.4,-0.6,-46.2,-85.2,-33.6,21.6,-1630.2,-49.5,-315.3,1135.8,-326.4,1036.5,2015.1,212.1,0.9,2.7,-2088.6,-3956.4,-16.8,93.6,454.8,-114.0,0,3444,0,79,
1.9167,-54.9,-143.1,-215.1,-3.3,-57.3,-83.7,-35.7,23.1,-2074.8,-29.4,-308.7,1209.9,-315.3,1047.3,2015.7,206.1,1.2,2.7,-1977.9,-3926.4,-16.8,77.1,441.3,-152.4,0,3450,0,80,
1.9200,-57.0,-145.5,-213.3,3.9,-49.2,-78.0,-34.8,27.0,-2297.1,-30.3,-306.3,1223.4,-320.1,1044.6,2013.3,199.2,1.5,2.4,-1854.0,-3960.0,-16.8,81.9,447.9,-133.5,0,3456,0,81,
1.9233,-54.0,-144.6,-213.3,4.2,-62.7,-79.5,-33.0,25.5,-2371.2,-38.1,-309.0,1243.2,-314.4,1047.0,2001.0,183.9,0.9,2.7,-1776.6,-4004.7,-17.1,94.8,448.8,-130.2,0,3462,0,82,
1.9267,-58.2,-152.7,-226.5,-12.3,-89.1,-98.4,-41.1,13.5,-2297.1,-44.4,-321.3,1242.9,-322.2,1055.4,2031.0,201.6,1.5,2.7,-1737.9,-3821.7,-16.8,63.6,437.1,-154.5,0,3468,0,83,
1.9300,-56.7,-147.9,-215.1,-3.6,-81.0,-87.6,-32.4,23.4,-2074.8,-27.6,-313.2,1303.2,-318.6,1047.6,2021.1,209.7,1.5,2.1,-1679.4,-3839.4,-17.1,91.8,453.0,-137.1,0,3474,0,84,
1.9333,-59.1,-150.3,-224.4,-6.6,-78.0,-83.7,-29.1,14.4,-2445.3,-15.0,-312.3,1295.4,-318.9,1052.4,1989.6,199.8,1.2,2.4,-1641.9,-3843.3,-17.1,89.4,456.6,-143.1,0,3480,0,85,
1.9367,-58.5,-155.7,-228.0,-13.8,-81.0,-93.0,-31.8,10.8,-2519.4,-40.2,-318.6,1287.3,-324.6,1053.0,2015.7,193.5,1.2,2.4,-1626.6,-3870.9,-17.1,84.6,447.9,-144.3,0,3486,0,86,
1.9400,-66.6,-155.7,-222.3,-9.0,-68.4,-87.0,-35.1,12.3,-2371.2,-30.3,-302.4,1247.1,-321.9,1039.8,1993.2,192.6,1.2,2.4,-1569.6,-3867.3,-17.1,72.0,458.4,-138.6,0,3492,0,87,
1.9433,-62.7,-150.9,-221.1,-7.8,-81.3,-85.2,-34.5,12.9,-1926.6,-37.8,-311.1,1266.0,-324.6,1040.7,2002.2,199.8,1.5,2.4,-1507.2,-3869.4,-17.1,91.8,458.4,-138.6,0,3498,0,88,
1.9467,-65.4,-152.4,-228.0,-11.1,-71.7,-83.7,-36.3,13.5,-1407.9,-48.0,-312.6,1260.6,-325.2,1042.5,2040.9,205.8,1.2,2.4,-1464.6,-3884.4,-17.1,101.7,462.9,-141.9,0,3504,0,89,
1.9500,-68.7,-160.2,-224.4,-13.5,-86.7,-97.2,-43.2,10.8,-1630.2,-30.9,-321.6,1231.5,-325.5,1034.7,2048.1,205.2,1.2,2.4,-1398.9,-3926.7,-16.8,64.8,439.2,-160.2,0,3510,0,90,
1.9533,-66.9,-165.3,-231.3,-13.5,-75.0,-90.3,-41.4,5.7,-1630.2,-50.4,-324.0,1259.1,-333.0,1029.6,2076.9,212.7,0.9,2.4,-1402.5,-3898.5,-17.1,93.9,449.4,-158.4,0,3516,0,91,
1.9567,-62.4,-168.3,-228.6,-18.3,-84.3,-87.9,-45.9,7.8,-1630.2,-43.8,-329.7,1219.5,-327.0,1031.7,2046.3,210.9,1.2,2.7,-1407.0,-3917.1,-17.1,76.5,443.7,-167.1,0,3522,0,92,
1.9600,-60.6,-155.4,-217.5,-12.6,-79.5,-84.9,-35.7,13.2,-1556.1,-42.0,-315.9,1268.1,-321.0,1035.3,1987.5,211.5,1.2,2.4,-1722.0,-3881.7,-16.8,77.1,444.6,-155.1,0,3528,0,93,
1.9633,-61.2,-143.7,-206.1,-3.3,-70.8,-73.5,-25.8,14.4,-1333.8,-41.1,-313.5,1205.7,-312.0,1033.2,1874.4,152.4,1.5,2.7,-1798.2,-3935.7,-16.8,82.2,450.9,-144.9,0,3534,0,94,
1.9667,-63.0,-147.9,-207.0,-0.9,-55.8,-69.9,-19.8,8.7,-1482.0,-43.2,-313.8,1299.9,-316.8,1032.3,1791.0,103.8,1.2,2.4,-1846.5,-3889.5,-17.1,119.7,459.3,-135.6,0,3540,0,95,
1.9700,-66.3,-139.5,-201.3,2.1,-59.7,-73.5,-21.0,7.2,-1630.2,-22.5,-307.5,1305.9,-311.4,1048.2,1752.6,155.7,1.2,2.7,-1835.7,-3817.2,-17.1,80.7,453.9,-140.4,0,3546,0,96,
1.9733,-70.5,-144.6,-208.8,-6.3,-51.0,-69.6,-21.0,9.3,-1926.6,-38.1,-309.9,1315.5,-324.3,1047.6,1739.1,113.7,0.9,2.4,-1835.4,-3826.5,-16.8,99.9,458.7,-131.7,0,3552,0,97,
1.9767,-73.8,-147.3,-214.5,-7.5,-37.8,-60.9,-17.7,12.6,-1482.0,-46.5,-311.7,1255.8,-337.2,1043.7,1748.1,126.6,1.5,2.4,-1831.2,-3731.7,-16.8,110.7,453.3,-127.5,0,3558,0,98,
1.9800,-64.8,-139.2,-216.0,-5.4,-70.2,-69.3,-25.2,12.6,-1259.7,-31.8,-303.3,1348.8,-330.0,1056.0,1746.0,121.8,1.2,2.4,-1787.7,-3791.1,-17.4,131.4,453.9,-122.1,0,3564,0,99,
1.9833,-61.5,-133.5,-212.7,0.0,-67.8,-66.6,-26.4,18.6,-1333.8,-32.4,-288.3,1378.5,-329.1,1053.3,1722.6,111.6,0.9,2.1,-1731.9,-3863.7,-17.1,118.5,447.0,-117.0,0,3570,0,100,
1.9867,-56.4,-126.3,-216.9,-0.9,-77.1,-71.4,-24.3,18.3,-1482.0,-20.1,-291.0,1387.5,-324.9,1052.4,1730.1,119.7,1.2,2.4,-1705.8,-3814.2,-16.5,85.8,442.2,-125.4,0,3576,0,101,
1.9900,-56.7,-129.3,-225.0,-6.0,-76.5,-78.9,-33.6,17.4,-1482.0,-17.7,-290.1,1389.9,-322.5,1056.6,1739.1,133.8,1.2,2.7,-1689.0,-3829.8,-16.8,81.9,426.0,-130.8,0,3582,0,102,
1.9933,-56.4,-125.7,-227.1,-6.6,-81.0,-81.6,-35.7,18.9,-1407.9,-12.9,-288.9,1430.1,-320.4,1061.4,1743.9,127.8,0.9,2.4,-1656.9,-3900.6,-17.1,73.8,417.0,-137.4,0,3588,0,103,
1.9967,-50.1,-123.0,-221.1,2.7,-58.8,-73.5,-28.5,27.6,-1111.5,-17.7,-287.1,1360.2,-316.8,1064.7,1777.8,155.4,1.2,2.1,-1625.4,-3906.9,-16.8,88.5,410.4,-122.7,0,3594,0,104,
2.0000,-50.7,-128.7,-219.6,10.5,-57.9,-69.0,-26.7,30.6,-1259.7,-18.3,-282.3,1367.4,-315.0,1066.8,1758.3,142.5,1.2,2.4,-1605.9,-3816.9,-16.5,94.8,405.0,-116.4,0,3600,0,105,
2.0033,-53.7,-131.4,-223.2,9.6,-51.6,-74.7,-21.3,37.2,-1333.8,-27.3,-290.4,1311.9,-313.2,1062.0,1766.4,160.5,1.2,2.7,-1601.7,-3778.2,-16.8,86.1,414.3,-128.1,0,3606,0,106,
2.0067,-51.9,-132.9,-224.1,6.3,-61.5,-72.0,-21.9,34.8,-1407.9,-20.7,-288.0,1391.1,-310.2,1068.0,1786.8,167.4,1.2,2.4,-1586.4,-3771.0,-16.8,79.8,407.4,-126.0,0,3612,0,107,
2.0100,-61.5,-142.5,-222.3,6.3,-54.6,-66.0,-24.3,37.2,-1259.7,-28.5,-283.5,1433.4,-316.5,1056.6,1782.6,174.9,1.5,2.4,-1538.4,-3835.2,-17.1,87.9,408.0,-125.1,0,3618,0,108,
2.0133,-57.3,-141.9,-222.6,6.3,-66.3,-70.5,-24.3,35.1,-1037.4,-21.9,-283.5,1445.4,-311.7,1058.7,1808.7,174.3,0.9,2.7,-1513.8,-3834.3,-16.5,84.0,401.1,-127.2,0,3624,0,109,
2.0167,-59.7,-142.8,-227.1,5.4,-58.5,-75.9,-29.1,35.1,-1037.4,-27.9,-282.0,1425.9,-310.5,1060.8,1803.6,175.2,1.2,2.7,-1477.5,-3800.7,-17.1,98.1,399.0,-126.9,0,3630,0,110,
2.0200,-54.0,-142.5,-225.3,6.6,-76.2,-73.5,-28.2,36.6,-1407.9,-30.3,-283.2,1424.7,-311.4,1057.8,1803.9,162.6,1.5,2.4,-1460.7,-3867.0,-16.8,91.2,398.7,-128.1,0,3636,0,111,
2.0233,-56.7,-143.7,-228.6,3.0,-71.1,-78.6,-30.9,31.5,-1482.0,-33.3,-280.5,1463.1,-308.1,1066.8,1817.7,171.3,0.9,2.4,-1419.3,-3888.9,-17.1,75.9,396.9,-137.7,0,3642,0,112,
2.0267,-52.2,-140.7,-228.6,8.1,-64.5,-73.2,-28.5,33.9,-1333.8,-27.6,-276.3,1403.1,-302.1,1066.2,1812.6,170.1,1.5,2.7,-1380.6,-3843.3,-16.8,101.7,394.2,-127.8,0,3648,0,113,
2.0300,-50.1,-133.8,-224.7,9.6,-57.6,-72.3,-29.7,37.8,-815.1,-17.1,-267.3,1384.2,-295.2,1075.8,1816.8,175.8,1.2,2.7,-1354.5,-3858.0,-16.8,90.9,395.1,-130.2,0,3654,0,114,
2.0333,-53.4,-137.4,-228.3,4.2,-57.0,-77.7,-32.7,31.5,-963.3,-32.7,-278.4,1409.1,-303.9,1070.4,1811.1,169.8,1.2,2.4,-1345.5,-3857.4,-16.8,85.8,391.5,-133.8,0,3660,0,115,
2.0367,-54.0,-139.2,-226.8,2.4,-71.4,-70.5,-31.8,33.0,-1185.6,-23.4,-269.4,1495.8,-305.4,1064.1,1810.2,190.2,0.9,2.4,-1305.9,-3801.3,-17.1,90.9,404.4,-137.4,0,3666,0,116,
2.0400,-53.7,-140.1,-229.8,-3.6,-83.7,-80.7,-31.5,30.6,-963.3,-25.8,-278.4,1441.8,-311.1,1061.4,1805.7,210.6,1.2,2.4,-1271.4,-3826.8,-16.8,88.5,414.9,-144.3,0,3672,0,117,
2.0433,-54.6,-138.6,-235.8,-5.4,-72.3,-80.1,-30.3,29.4,-963.3,-27.0,-297.3,1401.6,-307.2,1061.4,1829.1,234.9,1.2,2.4,-1227.3,-3873.0,-17.1,93.6,420.0,-145.5,0,3678,0,118,
2.0467,-56.1,-138.6,-229.2,4.5,-45.9,-69.9,-28.5,31.8,-592.8,-18.3,-274.5,1448.7,-303.6,1060.5,1832.1,256.5,0.9,2.4,-1155.3,-3799.8,-16.8,96.0,432.0,-138.6,0,3684,0,119,
2.0500,-57.6,-144.3,-226.8,1.8,-45.3,-65.4,-26.4,31.8,-592.8,-22.8,-254.1,1440.6,-310.8,1059.0,1826.4,240.6,1.2,2.4,-1105.2,-3867.6,-17.1,91.8,439.5,-136.8,0,3690,0,120,
2.0533,-64.8,-147.3,-228.3,0.9,-51.3,-64.5,-30.0,28.5,-666.9,-25.8,-247.2,1497.9,-317.4,1050.0,1825.5,254.4,0.9,2.7,-1072.5,-3805.8,-17.1,116.1,433.8,-133.8,0,3696,0,121,
2.0567,-67.8,-153.6,-240.0,-11.7,-81.3,-78.3,-35.4,25.5,-889.2,-39.3,-275.7,1540.5,-326.1,1047.0,1825.5,232.8,0.9,2.7,-1078.5,-3853.5,-16.8,81.0,415.2,-155.1,0,3702,0,122,
2.0600,-67.8,-159.3,-242.7,-12.9,-81.0,-73.8,-34.5,24.3,-889.2,-39.9,-267.9,1555.5,-330.0,1047.3,1840.8,252.9,0.6,2.4,-1053.6,-3827.7,-17.1,86.4,424.5,-147.6,0,3708,0,123,
2.0633,-57.9,-156.9,-237.0,-8.7,-86.4,-72.6,-30.3,25.2,-296.4,-34.2,-245.4,1582.2,-320.7,1051.8,1855.2,246.9,1.2,2.4,-1011.6,-3828.9,-17.1,75.3,420.3,-150.3,0,3714,0,124,
2.0667,-59.1,-160.2,-244.2,-14.4,-90.6,-86.7,-34.8,19.8,-592.8,-44.7,-266.4,1556.7,-330.0,1053.0,1853.1,248.4,1.5,2.4,-1015.8,-3846.0,-17.1,95.1,424.5,-144.0,0,3720,0,125,
2.0700,-62.4,-156.6,-244.5,-10.5,-78.0,-78.9,-29.7,21.0,-741.0,-25.5,-255.3,1563.6,-326.1,1055.4,1839.3,241.2,1.5,2.7,-996.3,-3879.3,-16.8,94.8,426.0,-147.3,0,3726,0,126,
2.0733,-71.1,-167.4,-253.8,-18.3,-81.6,-87.0,-38.7,16.8,-963.3,-38.4,-266.1,1534.2,-333.6,1037.7,1817.7,244.8,1.2,2.4,-991.5,-3834.9,-17.4,91.2,426.6,-148.2,0,3732,0,127,
2.0767,-70.2,-165.9,-256.5,-18.6,-75.9,-80.4,-33.6,14.4,-963.3,-42.6,-270.6,1532.1,-339.3,1039.2,1829.4,240.6,1.2,2.4,-970.2,-3815.4,-16.8,83.7,429.0,-148.8,0,3738,0,128,
2.0800,-63.0,-161.4,-243.9,-7.8,-61.8,-74.7,-27.3,17.7,-444.6,-31.5,-246.3,1579.5,-334.8,1047.0,1826.7,249.6,1.2,2.1,-919.8,-3760.8,-17.1,97.2,431.7,-138.9,0,3744,0,129,
2.0833,-65.1,-159.3,-255.9,-15.3,-76.5,-78.9,-35.1,13.5,-666.9,-24.9,-252.6,1581.9,-333.0,1046.1,1815.3,242.4,1.2,2.1,-915.3,-3744.6,-17.1,97.8,428.4,-139.5,0,3750,0,130,
2.0867,-67.5,-159.0,-260.4,-15.6,-71.7,-73.8,-35.4,15.9,-1037.4,-37.8,-270.9,1539.0,-333.3,1040.4,1794.6,243.9,0.9,2.4,-901.2,-3770.4,-17.1,102.9,432.0,-151.8,0,3756,0,131,
2.0900,-62.1,-153.0,-252.3,-5.4,-55.8,-70.5,-30.0,19.2,-1185.6,-20.4,-250.5,1531.8,-322.8,1043.7,1783.5,237.6,1.2,2.4,-869.4,-3765.9,-17.1,105.0,432.3,-140.1,0,3762,0,132,
2.0933,-56.4,-150.0,-244.8,0.6,-47.4,-63.3,-27.9,23.1,-1259.7,-25.2,-239.4,1554.6,-321.0,1047.9,1809.3,236.4,1.2,2.4,-840.6,-3772.5,-16.5,112.5,436.8,-134.7,0,3768,0,133,
2.0967,-55.2,-146.7,-244.8,1.2,-59.7,-60.9,-21.6,24.9,-666.9,-19.2,-240.0,1589.1,-315.9,1055.4,1829.7,264.6,1.2,2.4,-817.8,-3769.8,-17.1,111.9,444.6,-123.6,0,3774,0,134,
2.1000,-52.8,-139.8,-238.8,8.4,-46.8,-57.9,-21.9,31.5,-889.2,-8.7,-226.5,1623.6,-309.0,1057.5,1815.3,258.6,0.9,2.7,-789.9,-3744.0,-17.4,111.6,443.4,-131.1,0,3780,0,135,
2.1033,-52.8,-143.7,-243.0,5.4,-47.1,-56.7,-20.4,33.3,-1037.4,-23.4,-225.0,1610.1,-316.2,1046.7,1809.0,249.3,0.9,2.4,-769.2,-3734.4,-16.8,119.4,441.9,-125.7,0,3786,0,136,
2.1067,-53.7,-147.6,-247.2,2.7,-52.8,-67.8,-24.6,29.7,-1333.8,-19.8,-234.0,1619.1,-318.0,1058.7,1807.8,249.9,1.2,2.4,-755.4,-3732.0,-17.1,103.2,436.5,-122.7,0,3792,0,137,
2.1100,-49.5,-139.8,-236.1,11.7,-44.7,-58.5,-15.3,40.2,-1185.6,-3.0,-220.2,1645.2,-309.0,1060.8,1818.9,261.0,1.2,2.4,-709.5,-3749.4,-16.8,114.9,456.9,-126.3,0,3798,0,138,
2.1133,-52.5,-139.8,-234.0,14.7,-42.0,-51.9,-15.0,40.5,-741.0,-8.7,-222.3,1627.8,-311.7,1065.3,1846.5,275.7,1.2,2.4,-681.6,-3752.1,-17.1,123.3,456.3,-112.2,0,3804,0,139,
2.1167,-49.2,-137.7,-231.9,13.8,-42.0,-50.4,-13.8,42.3,-666.9,-16.2,-213.9,1635.0,-313.2,1059.9,1832.1,251.4,1.5,2.7,-641.1,-3757.2,-16.8,117.0,447.0,-117.6,0,3810,0,140,
2.1200,-52.8,-149.1,-249.0,6.0,-41.1,-55.2,-18.9,37.8,-1037.4,-25.2,-222.6,1583.7,-319.8,1068.9,1851.3,264.9,1.2,2.4,-641.4,-3742.2,-17.1,99.6,441.3,-135.3,0,3816,0,141,
2.1233,-57.3,-147.0,-247.5,6.0,-35.7,-58.5,-16.5,39.9,-1259.7,-25.8,-219.0,1618.2,-321.0,1058.1,1830.0,257.1,1.2,3.0,-613.5,-3771.9,-17.1,106.2,443.1,-119.7,0,3822,0,142,
2.1267,-59.1,-154.5,-252.9,-0.9,-54.6,-69.3,-21.3,32.1,-1185.6,-28.2,-227.4,1650.0,-327.6,1048.5,1845.3,252.6,1.2,2.1,-583.5,-3713.7,-17.1,89.1,430.8,-141.6,0,3828,0,143,
2.1300,-57.9,-153.6,-252.9,-4.2,-66.0,-74.1,-21.9,28.8,-666.9,-32.1,-222.9,1681.2,-328.5,1050.6,1876.5,273.3,1.2,2.7,-540.9,-3717.6,-17.1,87.0,433.8,-146.4,0,3834,0,144,
2.1333,-58.5,-156.9,-257.4,-5.7,-70.2,-74.7,-22.8,24.3,-815.1,-35.1,-222.0,1696.8,-333.0,1043.1,1847.1,259.5,0.9,2.4,-521.4,-3739.2,-17.1,93.6,432.9,-148.5,0,3840,0,145,
2.1367,-57.0,-151.2,-252.0,2.4,-65.7,-69.3,-18.0,30.9,-963.3,-27.9,-214.8,1705.8,-328.8,1044.9,1836.9,256.2,0.9,2.4,-503.7,-3755.1,-17.1,102.3,431.7,-147.9,0,3846,0,146,
2.1400,-60.0,-159.3,-256.2,1.2,-64.8,-69.0,-26.7,27.3,-1185.6,-37.5,-214.8,1665.6,-330.0,1045.8,1843.2,255.6,0.9,2.4,-475.8,-3804.3,-17.1,87.0,423.3,-153.6,0,3852,0,147,
2.1433,-62.4,-161.1,-257.7,1.5,-58.8,-66.6,-25.8,26.7,-1111.5,-51.0,-216.9,1706.1,-336.3,1045.5,1867.2,258.0,1.2,2.7,-433.8,-3789.0,-16.8,86.7,426.6,-148.2,0,3858,0,148,
2.1467,-65.1,-160.8,-261.6,0.9,-56.7,-74.1,-29.4,24.3,-666.9,-42.3,-222.6,1710.3,-339.3,1045.5,1869.6,280.8,1.2,2.7,-402.6,-3805.8,-16.8,86.7,432.3,-154.2,0,3864,0,149,
2.1500,-63.6,-160.5,-254.7,3.0,-51.6,-71.1,-29.7,25.5,-815.1,-36.0,-214.5,1665.3,-336.6,1046.7,1887.6,268.2,1.5,2.7,-378.0,-3737.7,-16.8,83.7,422.4,-150.9,0,3870,0,150,
2.1533,-65.7,-161.4,-255.0,10.5,-30.9,-61.8,-28.8,27.6,-963.3,-44.4,-206.1,1670.4,-341.4,1039.2,1855.5,256.5,1.5,2.4,-358.2,-3720.6,-16.8,91.8,428.1,-145.8,0,3876,0,151,
2.1567,-64.8,-157.2,-250.8,10.5,-48.3,-67.5,-28.8,30.0,-1407.9,-28.5,-203.1,1692.3,-334.2,1041.9,1847.4,257.1,1.5,2.4,-323.7,-3764.1,-17.1,81.0,430.5,-151.8,0,3882,0,152,
2.1600,-62.7,-158.7,-251.1,9.6,-51.6,-70.2,-31.5,27.0,-1185.6,-36.0,-200.1,1726.8,-337.2,1041.3,1851.6,248.1,1.5,2.4,-289.5,-3769.8,-16.8,81.9,429.6,-153.9,0,3888,0,153,
2.1633,-66.6,-162.0,-252.6,6.6,-54.3,-69.3,-31.2,24.0,-815.1,-33.9,-196.2,1757.7,-342.6,1037.7,1862.4,255.3,1.2,2.7,-253.8,-3677.7,-16.8,77.7,437.4,-152.7,0,3894,0,154,
2.1667,-63.9,-157.2,-247.8,10.2,-51.3,-66.6,-27.3,33.6,-815.1,-37.5,-185.4,1752.0,-343.2,1038.3,1874.7,261.3,1.5,2.4,-215.7,-3685.5,-16.8,81.3,444.3,-155.4,0,3900,0,155,
2.1700,-69.0,-164.7,-252.3,7.5,-57.0,-67.5,-28.5,29.7,-1111.5,-40.8,-190.8,1725.0,-348.3,1029.0,1853.4,248.1,0.9,2.4,-208.2,-3678.0,-16.8,91.5,439.2,-147.9,0,3906,0,156,
2.1733,-62.7,-155.4,-249.3,15.6,-24.9,-58.8,-24.3,36.0,-1556.1,-34.5,-180.9,1729.2,-340.5,1033.8,1855.5,248.4,1.2,2.7,-194.4,-3711.9,-17.4,95.4,432.3,-146.1,0,3912,0,157,
2.1767,-66.9,-160.8,-252.9,7.2,-44.4,-57.9,-22.2,37.5,-1185.6,-32.1,-176.7,1768.5,-345.0,1036.2,1867.5,272.1,0.9,2.4,-165.3,-3720.0,-16.8,88.8,432.3,-141.6,0,3918,0,158,
2.1800,-68.7,-161.1,-255.6,4.2,-62.4,-69.9,-27.0,32.4,-889.2,-46.5,-173.1,1790.1,-351.9,1022.7,1879.2,278.4,1.2,1.8,-136.2,-3668.1,-16.8,83.1,432.0,-148.5,0,3924,0,159,
2.1833,-63.9,-158.7,-247.2,11.7,-50.4,-54.6,-18.3,36.9,-815.1,-31.2,-160.2,1819.5,-345.3,1032.3,1883.4,282.0,0.9,2.1,-109.2,-3684.9,-17.1,88.5,437.1,-139.2,0,3930,0,160,
2.1867,-66.0,-159.9,-247.2,9.6,-59.4,-58.2,-18.9,33.9,-1185.6,-34.5,-151.2,1856.4,-344.7,1028.1,1892.1,266.1,1.5,2.4,-94.5,-3639.0,-16.8,90.6,429.6,-138.0,0,3936,0,161,
2.1900,-66.3,-159.0,-246.9,6.0,-62.7,-68.4,-21.9,28.8,-1482.0,-32.1,-143.4,1874.1,-343.5,1031.4,1892.4,272.4,0.9,2.4,-74.7,-3636.9,-17.1,96.6,431.1,-147.3,0,3942,0,162,
2.1933,-69.9,-160.8,-253.5,3.3,-60.6,-71.1,-29.1,25.8,-1482.0,-36.0,-154.2,1838.1,-345.3,1031.4,1892.1,274.2,1.2,2.7,-64.8,-3688.8,-17.4,89.7,429.9,-148.2,0,3948,0,163,
2.1967,-69.6,-160.8,-247.5,8.4,-55.5,-68.1,-26.1,27.0,-889.2,-25.2,-129.0,1864.2,-340.5,1032.6,1877.1,293.4,0.9,2.4,-19.5,-3635.4,-16.8,102.3,442.5,-143.1,0,3954,0,164,
2.2000,-65.1,-154.8,-249.3,2.1,-63.0,-74.1,-26.7,24.6,-1037.4,-20.4,-121.8,1843.2,-338.7,1041.3,1868.4,289.5,1.5,2.7,0.0,-3624.9,-17.4,103.8,448.8,-139.8,0,3960,0,165,
2.2033,-62.1,-154.8,-258.6,-3.9,-69.0,-67.8,-25.5,19.5,-1333.8,-19.2,-125.7,1858.5,-338.1,1044.3,1869.9,278.1,1.2,2.7,-4.8,-3632.4,-17.1,94.2,442.8,-142.5,0,3966,0,166,
2.2067,-58.2,-151.2,-258.9,-3.9,-59.1,-70.5,-24.0,20.1,-1556.1,-19.5,-115.8,1860.9,-333.0,1048.2,1884.0,266.1,1.2,2.4,10.5,-3681.9,-17.1,103.8,439.5,-141.6,0,3972,0,167,
2.2100,-58.8,-153.9,-256.8,-0.6,-42.9,-69.6,-18.6,21.9,-1556.1,-18.0,-112.5,1781.4,-333.9,1049.1,1876.8,280.5,1.2,2.4,51.0,-3697.8,-16.8,113.4,452.4,-132.0,0,3978,0,168,
2.2133,-60.0,-154.5,-253.5,4.8,-39.6,-60.9,-19.5,21.3,-1037.4,-17.4,-106.5,1824.0,-336.6,1044.3,1902.0,285.3,1.5,2.4,71.7,-3689.1,-17.1,107.1,461.1,-140.4,0,3984,0,169,
2.2167,-57.0,-147.6,-251.1,3.6,-53.4,-62.1,-18.3,23.7,-963.3,-15.6,-105.3,1918.8,-328.8,1053.0,1902.0,277.8,0.9,2.4,85.8,-3704.1,-16.8,110.1,459.3,-135.6,0,3990,0,170,
2.2200,-54.9,-150.3,-250.8,0.9,-68.1,-68.7,-18.9,21.0,-1259.7,-11.7,-92.1,1969.5,-330.0,1055.7,1903.8,263.1,0.6,2.1,112.2,-3708.0,-17.1,102.6,464.4,-132.0,0,3996,0,171,
2.2233,-45.3,-144.9,-247.2,5.7,-57.3,-60.0,-13.8,30.0,-1630.2,-9.3,-86.1,1942.5,-326.7,1053.0,1885.5,254.1,0.9,2.1,140.1,-3711.3,-16.8,118.2,462.6,-123.0,0,4002,0,172,
2.2267,-48.9,-149.7,-250.2,6.3,-63.0,-65.4,-15.9,26.7,-1556.1,-15.0,-86.4,1960.8,-335.1,1059.0,1902.0,268.5,0.9,2.4,145.8,-3717.9,-17.1,109.5,459.6,-132.6,0,4008,0,173,
2.2300,-45.9,-144.0,-243.9,13.5,-51.9,-57.3,-12.3,32.4,-1037.4,-19.5,-87.0,1963.2,-332.1,1060.8,1926.0,289.5,1.2,2.4,192.6,-3693.6,-16.8,111.9,462.3,-130.5,0,4014,0,174,
2.2333,-55.5,-149.4,-246.9,11.1,-52.2,-60.9,-15.3,25.8,-889.2,-18.0,-83.4,1942.5,-333.6,1056.0,1912.2,275.4,1.2,2.4,220.2,-3731.4,-16.8,102.0,450.9,-136.5,0,4020,0,175,
2.2367,-49.2,-153.0,-249.3,0.9,-60.6,-67.2,-16.2,21.6,-1333.8,-28.8,-82.8,1886.4,-334.8,1050.3,1910.7,261.6,1.5,2.7,220.8,-3748.2,-17.1,88.5,440.7,-146.1,0,4026,0,176,
2.2400,-53.7,-155.1,-251.7,1.2,-46.2,-72.6,-16.8,18.6,-1556.1,-33.3,-85.5,1884.9,-341.7,1050.3,1906.5,263.4,0.9,2.4,186.0,-3789.0,-16.8,89.7,445.5,-152.1,0,4032,0,177,
2.2433,-54.6,-150.0,-248.1,6.6,-46.2,-69.9,-19.5,21.6,-1556.1,-31.5,-77.4,1899.9,-336.9,1053.9,1893.3,269.4,1.5,2.7,185.1,-3704.4,-16.8,90.3,450.3,-153.0,0,4038,0,178,
2.2467,-54.0,-150.6,-249.9,9.9,-35.4,-62.4,-16.8,28.8,-963.3,-27.6,-76.8,1890.6,-339.0,1050.9,1889.1,281.4,1.2,2.7,267.3,-3742.2,-16.8,90.3,448.5,-152.7,0,4044,0,179,
2.2500,-46.5,-144.9,-240.9,9.3,-48.6,-59.4,-14.1,28.8,-963.3,-18.6,-53.4,1983.3,-331.5,1059.9,1887.6,279.3,1.2,2.4,297.6,-3755.4,-16.8,104.4,457.8,-144.9,0,4050,0,180,
2.2533,-44.7,-140.7,-242.1,12.3,-58.8,-61.2,-10.5,35.1,-1259.7,-5.1,-51.0,2032.2,-326.7,1065.0,1893.6,273.9,0.9,2.4,327.0,-3672.3,-17.1,110.7,453.9,-148.8,0,4056,0,181,
2.2567,-41.1,-137.7,-234.0,16.5,-45.0,-56.1,-12.3,38.7,-1704.3,2.4,-34.8,2015.4,-323.1,1063.2,1900.2,258.9,0.9,2.4,360.0,-3666.9,-17.1,127.2,449.1,-129.3,0,4062,0,182,
2.2600,-48.0,-141.3,-239.1,11.4,-62.7,-61.8,-13.8,32.1,-1556.1,-8.7,-45.9,1993.5,-330.9,1054.5,1905.9,267.9,1.2,2.7,372.9,-3627.3,-17.4,114.9,451.8,-142.2,0,4068,0,183,
2.2633,-44.4,-138.0,-236.1,13.5,-51.9,-56.7,-10.2,34.2,-1037.4,-2.7,-31.2,2019.9,-324.6,1062.0,1917.3,285.9,0.9,2.4,391.8,-3723.0,-16.8,116.4,463.8,-135.3,0,4074,0,184,
2.2667,-46.5,-145.8,-246.0,5.4,-56.7,-60.3,-13.5,28.2,-1037.4,-6.9,-33.0,2070.0,-329.4,1061.4,1925.7,277.5,1.2,2.4,400.5,-3676.2,-17.1,107.4,459.9,-136.8,0,4080,0,185,
2.2700,-44.7,-143.7,-244.5,9.3,-57.0,-60.0,-13.2,30.6,-1407.9,-1.5,-28.8,2061.0,-331.2,1062.0,1921.5,282.3,0.9,2.4,403.2,-3641.7,-17.1,115.5,467.1,-134.1,0,4086,0,186,
2.2733,-45.6,-143.1,-247.5,6.9,-51.6,-60.6,-18.9,28.5,-1778.4,1.2,-24.9,2003.1,-328.5,1064.1,1906.8,273.6,1.2,2.4,406.8,-3654.9,-17.1,114.0,463.5,-137.1,0,4092,0,187,
2.2767,-52.2,-144.3,-250.5,2.4,-61.5,-68.7,-20.4,24.3,-1556.1,-8.4,-27.9,2022.9,-330.9,1064.7,1911.9,291.9,1.2,2.4,419.4,-3689.4,-17.1,111.6,462.6,-141.3,0,4098,0,188,
2.2800,-48.0,-138.3,-247.8,5.1,-57.3,-65.7,-20.1,27.9,-963.3,-0.3,-13.2,2109.9,-326.4,1075.2,1947.3,291.9,1.2,2.1,448.2,-3651.0,-17.1,105.6,451.5,-140.4,0,4104,0,189,
2.2833,-47.4,-140.1,-248.1,4.5,-61.2,-66.9,-18.0,30.6,-889.2,3.6,-5.4,2099.1,-327.3,1068.0,1924.5,297.3,0.9,2.7,462.3,-3626.4,-17.1,116.7,455.1,-138.6,0,4110,0,190,
2.2867,-45.0,-137.4,-253.2,4.8,-46.2,-58.5,-10.8,32.4,-1407.9,-3.3,-8.1,2093.1,-327.3,1060.5,1896.6,296.1,0.9,2.1,436.5,-3636.0,-16.8,127.2,449.7,-129.3,0,4116,0,191,
2.2900,-45.6,-136.8,-253.8,3.9,-51.3,-58.2,-12.3,30.9,-1556.1,3.9,-5.1,2081.4,-327.6,1067.7,1896.3,312.0,1.2,2.1,441.9,-3683.4,-17.1,121.5,448.2,-126.3,0,4122,0,192,
2.2933,-42.3,-132.3,-245.7,10.8,-41.4,-39.9,-4.2,37.2,-1630.2,1.8,9.0,2112.9,-320.7,1067.4,1908.6,311.7,1.2,2.4,439.8,-3669.9,-17.1,130.8,453.6,-115.8,0,4128,0,193,
2.2967,-46.2,-132.9,-244.5,10.2,-39.9,-52.2,-9.3,38.1,-889.2,5.4,7.8,2146.2,-321.9,1075.5,1940.4,317.1,1.2,2.1,370.5,-3614.1,-17.4,117.3,453.9,-119.4,0,4134,0,194,
2.3000,-45.0,-132.3,-238.2,14.1,-54.0,-52.2,-8.4,41.1,-815.1,8.7,23.7,2140.8,-318.9,1074.9,1916.1,300.9,1.5,2.7,98.1,-3584.4,-16.8,132.9,459.3,-123.0,0,4140,0,195,
2.3033,-43.5,-125.4,-234.9,22.5,-34.8,-45.3,-9.6,43.8,-1185.6,25.8,33.3,2082.9,-312.6,1073.4,1891.8,274.2,1.2,2.4,7.2,-3669.0,-16.8,149.1,456.0,-115.5,0,4146,0,196,
2.3067,-40.8,-129.6,-234.6,26.1,-18.0,-36.6,0.6,45.9,-1482.0,19.5,44.7,2139.9,-311.4,1080.0,1901.1,296.4,1.2,2.4,0.6,-3614.4,-17.1,151.2,462.0,-109.2,0,4152,0,197,
2.3100,-45.0,-136.2,-240.6,24.6,-25.8,-47.4,-2.1,41.4,-1482.0,9.9,32.4,2153.1,-322.8,1072.5,1915.5,294.9,1.2,2.4,-31.2,-3571.5,-16.8,132.3,453.0,-122.1,0,4158,0,198,
2.3133,-45.9,-142.2,-249.6,9.0,-44.4,-56.1,-5.4,38.1,-889.2,6.6,29.1,2180.7,-325.8,1065.9,1937.4,322.8,1.2,2.7,-99.9,-3555.3,-16.8,130.2,461.4,-123.0,0,4164,0,199,
2.3167,-46.5,-138.6,-251.7,10.5,-38.4,-51.9,-4.2,44.4,-815.1,2.7,35.4,2171.1,-327.6,1071.0,1908.0,313.5,1.2,2.7,-196.5,-3540.3,-16.8,121.2,450.6,-141.3,0,4170,0,200,
2.3200,-50.1,-139.2,-245.1,12.3,-37.5,-50.7,-4.8,47.4,-1259.7,8.1,48.3,2205.6,-329.1,1059.0,1892.7,296.1,0.9,2.4,-274.2,-3573.3,-17.1,140.7,451.5,-119.7,0,4176,0,201,
2.3233,-48.0,-138.3,-240.3,11.1,-43.8,-57.3,-9.0,46.5,-1630.2,15.9,56.4,2160.0,-323.4,1065.3,1873.8,279.6,0.9,2.7,-343.2,-3517.8,-17.4,137.4,440.4,-133.5,0,4182,0,202,
