# Mains_Frequency_(Hz) =,60,,,,,,,,,,,,,,,,,,,,,,,,,,,
# Sample_Frequency_(Hz) =,300,,,,,,,,,,,,,,,,,,,,,,,,,,,
# Filter_Delay_(ms) =,176.6,,,,,,,,,,,,,,,,,,,,,,,,,,,
# Sensor_Data_Units =,uV,,,,,,,,,,,,,,,,,,,,,,,,,,,
# Headset_Name =,DSI-24 SN:4618,,,,,,,,,,,,,,,,,,,,,,,,,,,
# Data_Logger =,DSI-Streamer-v.1.08.18,,,,,,,,,,,,,,,,,,,,,,,,,,,
# Date =,5/25/2018,,,,,,,,,,,,,,,,,,,,,,,,,,,
# Time =,17:10:40,,,,,,,,,,,,,,,,,,,,,,,,,,,
# Patient_ID =,X F 01-MAY-1999 X,,,,,,,,,,,,,,,,,,,,,,,,,,,
# Record_ID =,Startdate 25-MAY-2018 EEG_XX X 4618,,,,,,,,,,,,,,,,,,,,,,,,,,,
# Filter =,HP:1.0Hz;LP:50.0Hz;,,,,,,,,,,,,,,,,,,,,,,,,,,,
# Comments =,,,,,,,,,,,,,,,,,,,,,,,,,,,,
# Reference location:,Pz,,,,,,,,,,,,,,,,,,,,,,,,,,,
# Trigger Source,Wireless,,,,,,,,,,,,,,,,,,,,,,,,,,,
# Channel_Number =,ch_1,ch_2,ch_3,ch_4,ch_5,ch_6,ch_7,ch_8,ch_9,ch_10,ch_11,ch_12,ch_13,ch_14,ch_15,ch_16,ch_17,ch_18,ch_19,ch_20,ch_21,ch_22,ch_23,ch_24,Trigger,Time_Offset,ADC_Status,ADC_Sequence,Comments
Time,P3,C3,F3,Fz,F4,C4,P4,Cz,CM,A1,Fp1,Fp2,T3,T5,O1,O2,X3,X2,F7,F8,X1,A2,T6,T4,Trigger,Time_Offset,ADC_Status,ADC_Sequence,Comments
0.0033,0.0,0.0,0.0,0.0,0.0,0.0,0.0,0.0,0.0,0.0,0.0,0.0,0.0,0.0,0.0,0.0,0.0,0.0,0.0,0.0,0.0,0.0,0.0,0.0,0,6,0,168,Start Data Acquisition
0.0067,0.0,0.0,0.0,0.0,0.0,0.0,0.0,0.0,0.0,0.0,0.0,0.0,0.0,0.0,0.0,0.0,0.0,0.0,0.0,0.0,0.0,0.0,0.0,0.0,0,12,0,169,
0.0100,0.0,0.0,0.0,0.0,0.0,0.0,0.0,0.0,0.0,0.0,0.0,0.0,0.0,0.0,0.0,0.0,0.0,0.0,0.0,0.0,0.0,0.0,0.0,0.0,0,18,0,170,
0.0133,0.0,0.0,0.0,0.0,0.0,0.0,0.0,0.0,0.0,0.0,0.0,0.0,0.0,0.0,0.0,0.0,0.0,0.0,0.0,0.0,0.0,0.0,0.0,0.0,0,24,0,171,
0.0167,0.0,0.0,0.0,0.0,0.0,0.0,0.0,0.0,-0.1,0.0,0.0,0.0,0.0,0.0,0.0,0.0,0.0,0.0,0.0,0.0,0.0,0.0,0.0,0.0,0,30,0,172,
0.0200,0.0,0.0,0.0,0.0,0.0,0.0,0.0,0.0,0.0,0.0,0.0,0.0,0.0,0.0,0.0,0.0,0.0,0.0,0.0,0.0,0.0,0.0,0.0,0.0,0,36,0,173,
0.0233,0.0,0.0,0.0,0.0,0.0,0.0,0.0,0.0,0.2,0.0,0.0,0.0,0.0,0.0,0.0,0.0,0.0,0.0,0.0,0.0,0.0,0.0,0.0,0.0,0,42,0,174,
0.0267,0.0,0.0,0.0,0.0,0.0,0.0,0.0,0.0,0.4,0.0,0.0,0.0,0.0,0.0,0.0,0.0,0.0,0.0,0.0,0.0,0.0,0.0,0.0,0.0,0,48,0,175,
0.0300,0.0,0.0,0.0,0.0,0.0,0.0,0.0,0.0,0.0,0.0,0.0,0.0,0.0,0.0,0.0,0.0,0.0,0.0,0.0,0.0,0.0,0.0,0.0,0.0,0,54,0,176,
0.0333,0.0,0.0,0.0,0.0,0.0,0.0,0.0,0.0,-0.8,0.0,0.0,0.0,0.0,0.0,0.0,0.0,0.0,0.0,0.0,0.0,0.0,0.0,0.0,0.0,0,60,0,177,
0.0367,0.0,0.0,0.0,0.0,0.0,0.0,0.0,0.0,-1.0,0.0,0.0,0.0,0.0,0.0,-0.1,0.0,0.0,0.0,0.0,0.0,0.0,0.0,0.0,0.0,0,66,0,178,
0.0400,0.0,0.0,0.0,0.0,0.0,0.0,0.0,0.0,0.3,0.0,0.0,0.0,0.0,0.0,0.0,0.0,0.0,0.0,0.0,0.0,0.0,0.0,0.1,0.0,0,72,0,179,
0.0433,0.0,0.0,0.0,0.0,0.0,0.0,0.0,0.0,2.0,0.0,0.0,0.0,0.0,0.0,0.1,0.1,0.0,0.0,0.0,0.0,0.0,0.0,0.0,0.0,0,78,0,180,
0.0467,0.0,0.0,0.0,0.0,0.0,0.0,0.0,0.0,1.9,0.0,0.0,0.0,0.0,0.0,0.1,0.0,0.0,0.0,0.0,0.0,0.0,0.0,-0.1,-0.1,0,84,0,181,
0.0500,0.0,0.0,0.0,0.0,0.0,0.0,0.0,0.0,-0.9,0.0,0.0,0.0,0.1,0.1,0.0,-0.1,0.0,0.0,0.0,0.0,0.0,0.0,-0.2,-0.1,0,90,0,182,
0.0533,0.0,0.0,0.0,0.0,0.0,0.0,0.0,0.0,-3.9,0.0,0.0,0.1,0.0,0.0,-0.2,-0.1,0.0,0.0,0.0,0.0,0.0,0.0,-0.1,0.0,0,96,0,183,
0.0567,0.0,0.0,0.0,0.0,0.0,0.0,0.0,0.0,-3.1,0.0,0.0,0.1,0.0,-0.1,-0.2,0.0,0.0,0.0,0.0,0.0,0.0,0.1,0.2,0.1,0,102,0,184,
0.0600,-0.1,-0.1,-0.1,-0.1,0.0,0.0,0.0,-0.1,2.1,-0.1,-0.1,0.0,-0.1,-0.1,0.0,0.2,0.0,0.0,0.0,-0.1,0.0,0.1,0.3,0.1,0,108,0,185,
0.0633,0.0,0.0,-0.1,0.0,0.0,0.0,0.0,-0.1,6.7,0.0,0.0,-0.1,-0.1,0.0,0.3,0.2,0.0,0.0,0.0,-0.1,0.0,0.0,0.1,0.0,0,114,0,186,
0.0667,0.0,0.0,0.0,0.0,0.0,-0.1,0.0,0.0,4.5,0.1,0.1,-0.2,0.0,0.1,0.3,-0.1,0.0,0.0,0.0,0.0,0.0,-0.1,-0.3,-0.2,0,120,0,187,
0.0700,0.1,0.1,0.1,0.1,0.1,0.0,0.0,0.1,-4.1,0.1,0.1,0.0,0.2,0.2,-0.1,-0.3,0.0,0.0,0.0,0.1,0.0,-0.1,-0.4,-0.2,0,126,0,188,
0.0733,0.0,0.1,0.1,0.1,0.0,0.0,0.0,0.1,-10.4,0.0,0.1,0.2,0.1,0.1,-0.4,-0.3,0.0,0.0,0.0,0.2,0.0,0.0,-0.2,0.0,0,132,0,189,
0.0767,-0.1,-0.1,0.0,0.0,-0.1,0.1,0.0,0.0,-6.0,-0.1,-0.1,0.2,-0.1,-0.2,-0.4,0.1,0.0,0.0,0.1,0.1,0.0,0.1,0.4,0.3,0,138,0,190,
0.0800,-0.1,-0.2,-0.2,-0.1,-0.1,0.1,0.1,-0.1,6.8,-0.1,-0.2,0.0,-0.2,-0.3,0.1,0.5,0.0,0.0,0.0,-0.2,0.0,0.2,0.7,0.3,0,144,0,191,
0.0833,-0.1,-0.1,-0.1,-0.1,0.0,0.0,0.1,-0.2,15.0,0.0,-0.1,-0.3,-0.2,-0.1,0.6,0.4,0.0,0.0,-0.1,-0.3,0.0,0.0,0.2,-0.1,0,150,0,192,
0.0867,0.1,0.1,0.0,0.1,0.1,-0.1,0.0,0.0,7.6,0.1,0.1,-0.4,0.1,0.2,0.5,-0.2,0.0,0.0,-0.1,-0.1,0.0,-0.2,-0.6,-0.5,0,156,0,193,
0.0900,0.2,0.2,0.2,0.2,0.2,-0.1,-0.1,0.2,-10.5,0.2,0.3,0.0,0.3,0.4,-0.1,-0.8,0.0,0.0,-0.1,0.2,0.0,-0.3,-1.0,-0.5,0,162,0,194,
0.0933,0.1,0.2,0.2,0.1,0.0,0.0,-0.1,0.2,-20.9,0.1,0.1,0.4,0.3,0.1,-0.8,-0.6,0.0,0.0,0.1,0.5,0.0,-0.1,-0.4,0.1,0,168,0,195,
0.0967,-0.1,-0.1,-0.1,-0.1,-0.2,0.1,0.0,0.0,-9.8,-0.2,-0.2,0.5,-0.1,-0.4,-0.7,0.3,0.0,0.0,0.2,0.2,0.0,0.3,0.9,0.7,0,174,0,196,
0.1000,-0.3,-0.4,-0.3,-0.3,-0.2,0.1,0.1,-0.3,15.1,-0.3,-0.4,0.1,-0.5,-0.6,0.2,1.1,0.0,0.0,0.1,-0.3,0.0,0.4,1.4,0.7,0,180,0,197,
0.1033,-0.1,-0.2,-0.3,-0.1,0.0,0.0,0.1,-0.3,28.9,-0.1,-0.1,-0.5,-0.4,-0.2,1.1,0.8,0.0,0.0,-0.1,-0.7,0.0,0.1,0.5,-0.2,0,186,0,198,
0.1067,0.2,0.2,0.1,0.2,0.3,-0.2,0.0,0.0,13.5,0.3,0.3,-0.7,0.2,0.5,1.1,-0.5,0.0,0.0,-0.3,-0.3,0.0,-0.4,-1.2,-1.1,0,192,0,199,
0.1100,0.4,0.5,0.5,0.4,0.3,-0.2,-0.2,0.4,-21.0,0.4,0.5,-0.2,0.7,0.8,-0.2,-1.6,0.0,0.0,-0.1,0.5,0.0,-0.5,-2.0,-1.0,0,198,0,200,
0.1133,0.2,0.3,0.4,0.2,-0.1,0.0,-0.2,0.4,-41.2,0.1,0.2,0.7,0.5,0.3,-1.6,-1.2,0.0,0.0,0.2,0.9,0.0,-0.1,-0.7,0.3,0,204,0,201,
0.1167,-0.3,-0.4,-0.2,-0.3,-0.5,0.3,0.0,0.0,-21.1,-0.5,-0.5,1.1,-0.3,-0.8,-1.7,0.6,0.0,0.0,0.3,0.4,0.0,0.6,1.9,1.6,0,210,0,202,
0.1200,-0.6,-0.8,-0.7,-0.6,-0.5,0.3,0.3,-0.6,29.1,-0.6,-0.8,0.4,-1.1,-1.3,0.2,2.3,0.0,0.0,0.1,-0.7,0.0,0.8,3.0,1.5,0,216,0,203,
0.1233,-0.2,-0.5,-0.6,-0.3,0.1,-0.1,0.3,-0.7,64.7,-0.1,-0.2,-0.8,-0.8,-0.4,2.7,1.9,0.0,0.0,-0.2,-1.2,0.0,0.2,0.9,-0.5,0,222,0,204,
0.1267,0.6,0.7,0.4,0.5,0.8,-0.5,0.0,0.1,42.1,0.8,0.9,-1.5,0.6,1.5,3.2,-0.8,0.0,0.0,-0.3,-0.3,0.0,-1.0,-3.2,-2.7,0,228,0,205,
0.1300,1.1,1.5,1.3,1.0,0.9,-0.4,-0.4,1.0,-41.3,1.1,1.5,-0.6,2.0,2.4,-0.2,-3.7,0.0,0.0,0.1,1.2,0.0,-1.5,-5.1,-2.6,0,234,0,206,
0.1333,0.3,0.6,0.8,0.3,0.1,0.2,-0.6,1.1,-137.9,0.1,0.0,1.0,1.2,0.4,-6.3,-3.8,0.0,0.0,-0.2,1.0,0.0,-0.1,-0.8,1.2,0,240,0,207,
0.1367,-2.3,-2.9,-2.1,-2.1,-1.5,1.0,-0.6,-0.5,-183.3,-2.4,-4.0,0.4,-2.9,-4.9,-11.6,0.1,0.0,0.1,-2.7,-2.5,-0.1,3.1,9.5,7.1,0,246,0,208,
0.1400,-6.0,-8.0,-6.9,-5.7,-3.3,0.8,-0.6,-3.7,-146.0,-5.6,-9.9,-5.3,-9.5,-11.8,-11.6,6.0,0.0,0.2,-9.0,-9.0,-0.3,6.5,20.3,11.5,0,252,0,209,
0.1433,-9.4,-13.0,-11.8,-9.4,-4.9,-1.0,-1.0,-7.1,-52.6,-8.1,-16.1,-17.1,-15.9,-17.4,-4.8,10.1,0.1,0.4,-18.6,-15.1,-0.4,7.7,24.2,11.2,0,258,0,210,
0.1467,-11.0,-15.9,-14.6,-11.7,-6.3,-4.5,-1.9,-9.0,32.6,-9.1,-21.1,-31.6,-19.1,-19.6,6.3,9.6,0.2,0.4,-29.5,-17.6,-0.4,5.5,17.1,5.9,0,264,0,211,
0.1500,-10.3,-16.0,-14.2,-12.1,-7.4,-8.2,-2.8,-8.3,57.5,-8.4,-24.3,-43.0,-18.0,-18.3,16.7,5.4,0.3,0.4,-38.6,-15.8,-0.3,0.9,1.8,-1.5,0,270,0,212,
0.1533,-7.7,-13.7,-11.1,-10.5,-7.5,-10.3,-2.9,-5.3,19.9,-6.7,-26.1,-46.8,-13.5,-15.0,22.3,1.3,0.3,0.3,-43.8,-13.4,-0.2,-3.2,-13.1,-6.7,0,276,0,213,
0.1567,-4.0,-10.4,-7.2,-7.9,-5.6,-9.6,-1.5,-1.5,-36.4,-4.7,-27.2,-43.4,-8.3,-11.5,23.0,1.1,0.4,0.3,-45.5,-16.1,-0.1,-3.5,-19.1,-7.1,0,282,0,214,
0.1600,-0.5,-7.1,-4.3,-5.4,-1.1,-6.2,1.3,1.4,-60.5,-2.9,-28.2,-38.3,-4.5,-8.3,21.9,5.9,0.3,0.3,-46.0,-27.1,-0.1,1.4,-13.1,-2.5,0,288,0,215,
0.1633,2.2,-4.2,-3.3,-3.9,4.8,-1.6,4.6,2.4,-35.0,-1.1,-29.2,-38.2,-2.4,-4.7,23.0,12.9,0.3,0.4,-47.9,-44.1,-0.2,10.5,1.0,4.8,0,294,0,216,
0.1667,3.7,-1.8,-3.9,-3.9,9.6,2.4,7.3,1.7,14.4,0.8,-30.2,-46.3,-1.1,-0.2,27.3,18.6,0.2,0.5,-52.2,-59.9,-0.2,20.9,15.5,12.6,0,300,0,217,
0.1700,4.0,0.0,-5.2,-5.3,10.9,4.5,8.9,0.1,44.1,2.9,-31.5,-60.0,0.5,4.3,32.2,20.6,0.2,0.5,-58.2,-67.5,-0.1,29.4,24.8,19.1,0,306,0,218,
0.1733,3.5,0.5,-6.4,-7.4,8.7,4.7,9.1,-1.6,27.4,4.9,-33.8,-74.7,2.3,7.0,33.3,19.5,0.2,0.4,-64.4,-64.4,-0.1,33.9,27.5,23.3,0,312,0,219,
0.1767,2.5,-0.5,-7.9,-9.7,5.5,3.9,8.4,-3.0,-29.0,6.3,-37.7,-88.4,3.1,6.7,28.7,17.3,0.2,0.3,-69.9,-55.2,0.0,33.6,26.5,24.5,0,318,0,220,
0.1800,1.4,-2.5,-10.2,-11.8,4.6,3.1,7.1,-4.2,-95.8,6.9,-43.5,-103.5,2.1,3.8,20.2,15.5,0.1,0.3,-75.2,-48.6,0.0,28.9,24.5,22.0,0,324,0,221,
0.1833,0.6,-5.0,-13.6,-13.6,7.3,2.8,5.6,-5.7,-142.8,6.8,-50.5,-122.6,-0.4,0.2,11.9,13.7,0.1,0.3,-81.2,-51.7,0.0,20.9,22.6,16.2,0,330,0,222,
0.1867,0.1,-6.9,-17.3,-15.5,11.7,3.1,4.4,-7.7,-155.8,6.4,-57.3,-142.7,-2.7,-1.8,7.3,10.8,0.0,0.3,-88.0,-65.0,-0.1,11.8,19.9,9.0,0,336,0,223,
0.1900,-0.1,-8.0,-20.0,-17.6,13.9,3.9,4.3,-9.9,-138.8,6.2,-62.4,-152.8,-3.2,-1.4,6.9,6.2,0.1,0.4,-94.0,-82.3,-0.1,4.5,16.1,3.4,0,342,0,224,
0.1933,-0.2,-8.3,-20.6,-19.7,10.4,4.9,5.6,-11.9,-108.8,6.5,-65.0,-140.4,-1.5,0.8,8.3,0.8,0.2,0.3,-97.1,-93.7,-0.1,1.5,13.1,1.7,0,348,0,225,
0.1967,0.0,-8.0,-19.0,-21.5,0.9,5.9,8.5,-12.9,-88.0,7.0,-65.2,-102.5,1.2,3.2,8.9,-3.6,0.4,0.3,-96.2,-91.6,-0.1,3.9,13.8,3.9,0,354,0,226,
0.2000,0.2,-7.2,-16.4,-22.9,-11.3,6.4,11.9,-12.4,-94.9,7.1,-63.9,-52.6,2.9,4.9,8.4,-6.6,0.5,0.2,-92.4,-75.7,-0.1,10.1,19.2,8.1,0,360,0,227,
0.2033,0.5,-6.0,-14.6,-23.9,-21.3,5.8,14.2,-10.7,-135.9,6.0,-63.0,-15.3,2.3,5.8,8.3,-8.8,0.5,0.2,-88.7,-53.8,-0.1,16.5,27.2,11.3,0,366,0,228,
0.2067,0.4,-4.9,-14.9,-24.6,-25.2,4.2,14.2,-8.5,-199.7,3.1,-63.8,-12.3,-0.6,5.7,10.1,-11.1,0.4,0.2,-88.2,-37.8,-0.1,19.8,33.6,12.0,0,372,0,229,
0.2100,-0.3,-5.2,-17.1,-25.2,-21.8,2.1,11.9,-6.9,-263.3,-1.4,-67.1,-46.8,-4.5,4.2,13.5,-14.0,0.3,0.2,-92.2,-37.0,-0.1,18.8,35.5,10.0,0,378,0,230,
0.2133,-1.8,-7.5,-20.2,-25.4,-13.3,0.4,8.9,-6.6,-307.7,-6.9,-72.6,-100.5,-8.1,0.7,16.2,-16.7,0.1,0.2,-99.8,-52.3,-0.1,15.4,33.3,6.8,0,384,0,231,
0.2167,-3.7,-11.8,-22.6,-24.9,-3.6,-0.4,6.6,-7.6,-331.1,-12.1,-78.8,-144.9,-10.8,-4.5,16.6,-17.7,0.0,0.1,-108.6,-75.1,0.0,12.4,30.5,3.0,0,390,0,232,
0.2200,-5.3,-16.5,-23.7,-24.2,2.7,-0.9,5.8,-9.3,-349.1,-15.8,-84.2,-159.5,-12.5,-10.0,15.5,-16.4,0.1,0.1,-115.9,-93.0,0.0,11.0,30.6,-1.6,0,396,0,233,
0.2233,-6.1,-19.7,-23.6,-23.8,2.7,-2.4,5.7,-10.8,-378.8,-17.5,-87.6,-144.3,-13.5,-13.5,15.8,-13.6,0.1,0.1,-120.1,-97.8,0.0,10.0,33.6,-7.6,0,402,0,234,
0.2267,-5.9,-20.5,-23.2,-24.6,-4.1,-6.3,4.8,-11.4,-421.9,-17.3,-89.3,-117.0,-14.2,-13.4,20.6,-10.9,0.2,0.2,-121.3,-90.7,-0.1,6.6,36.5,-14.9,0,408,0,235,
0.2300,-5.1,-19.4,-23.5,-26.6,-14.8,-12.1,2.3,-11.0,-461.6,-16.5,-90.2,-98.6,-15.1,-10.9,30.4,-9.5,0.2,0.3,-120.7,-81.0,-0.1,-0.8,35.8,-21.8,0,414,0,236,
0.2333,-4.2,-18.3,-25.0,-29.3,-24.8,-18.3,-1.1,-9.9,-476.1,-16.3,-91.8,-99.1,-16.6,-8.4,42.3,-9.4,0.1,0.4,-120.6,-77.6,-0.2,-10.8,30.7,-26.0,0,420,0,237,
0.2367,-4.0,-18.8,-27.5,-31.8,-30.3,-22.7,-3.8,-8.7,-456.9,-17.7,-95.0,-112.7,-19.0,-8.7,52.7,-9.5,0.0,0.4,-123.3,-82.1,-0.1,-19.7,23.6,-26.0,0,426,0,238,
0.2400,-4.8,-21.4,-30.3,-33.2,-30.5,-23.9,-4.5,-7.9,-415.5,-20.9,-99.6,-126.0,-22.2,-12.5,60.2,-8.5,-0.1,0.3,-129.8,-87.7,0.0,-24.0,18.3,-22.2,0,432,0,239,
0.2433,-6.5,-25.0,-32.6,-33.6,-27.6,-22.9,-3.3,-8.0,-374.0,-25.3,-104.4,-129.4,-25.6,-18.1,65.7,-6.0,-0.1,0.2,-139.2,-87.0,0.1,-22.8,16.5,-17.1,0,438,0,240,
0.2467,-8.6,-28.1,-34.0,-33.3,-25.1,-21.4,-1.9,-9.0,-347.1,-29.8,-107.9,-124.3,-28.4,-22.3,71.4,-3.5,0.0,0.0,-148.7,-79.7,0.0,-18.1,16.9,-13.7,0,444,0,241,
0.2500,-10.4,-29.9,-33.8,-32.8,-24.6,-21.3,-2.1,-10.3,-332.1,-32.9,-109.1,-119.6,-30.4,-23.4,77.6,-3.0,0.1,0.0,-154.8,-74.9,0.0,-13.7,16.7,-13.8,0,450,0,242,
0.2533,-11.4,-30.4,-32.1,-32.1,-24.9,-22.6,-4.1,-11.4,-313.2,-33.6,-108.0,-123.5,-32.0,-21.1,82.7,-5.6,0.2,0.0,-155.3,-82.8,-0.1,-12.5,13.9,-17.4,0,456,0,243,
0.2567,-11.4,-29.9,-29.2,-30.9,-23.5,-24.3,-6.6,-11.4,-276.7,-31.7,-105.4,-136.6,-33.4,-17.4,83.9,-10.0,0.2,0.1,-150.7,-104.3,-0.1,-15.2,9.3,-22.9,0,462,0,244,
0.2600,-10.5,-28.7,-26.1,-29.4,-19.1,-24.7,-7.4,-10.3,-224.7,-28.0,-102.8,-152.3,-34.6,-14.3,80.5,-13.3,0.2,0.2,-144.0,-127.4,0.0,-20.2,5.2,-28.0,0,468,0,245,
0.2633,-9.1,-26.8,-23.8,-27.9,-13.4,-23.4,-5.4,-8.4,-175.5,-24.0,-101.0,-162.1,-34.6,-13.0,74.9,-12.5,0.1,0.2,-138.8,-134.5,0.1,-25.1,3.4,-30.8,0,474,0,246,
0.2667,-7.6,-24.3,-22.9,-26.6,-10.3,-20.9,-1.0,-6.5,-150.9,-21.3,-100.1,-161.7,-32.6,-13.6,70.5,-6.8,0.0,0.1,-136.9,-116.1,0.1,-27.5,3.6,-29.8,0,480,0,247,
0.2700,-6.2,-21.9,-23.0,-25.5,-12.2,-18.4,3.8,-5.2,-160.1,-20.7,-99.6,-152.1,-29.2,-15.5,69.6,1.8,0.0,0.1,-137.9,-79.2,0.0,-26.0,4.5,-24.3,0,486,0,248,
0.2733,-5.2,-20.3,-22.8,-23.8,-18.2,-16.5,7.4,-4.3,-193.3,-21.6,-98.4,-137.4,-26.2,-17.7,71.1,10.1,0.0,0.1,-139.5,-43.2,-0.2,-20.2,4.6,-14.7,0,492,0,249,
0.2767,-4.6,-19.5,-21.1,-21.0,-23.9,-14.8,8.8,-3.0,-227.4,-22.6,-95.9,-121.9,-25.5,-19.3,71.9,15.2,0.2,0.1,-139.5,-25.4,-0.3,-11.4,3.1,-3.4,0,498,0,250,
0.2800,-4.1,-19.0,-17.5,-17.0,-24.8,-12.5,8.6,-0.7,-241.2,-22.2,-91.5,-109.1,-28.0,-19.1,69.5,16.5,0.3,0.1,-137.3,-29.0,-0.3,-2.3,0.2,6.3,0,504,0,251,
0.2833,-3.5,-17.6,-12.6,-12.3,-19.2,-9.6,7.5,2.4,-226.7,-20.1,-85.8,-101.6,-31.9,-16.4,64.0,15.2,0.3,0.1,-133.7,-43.0,-0.2,4.3,-4.5,11.0,0,510,0,252,
0.2867,-2.3,-14.7,-7.9,-7.8,-9.6,-6.9,6.1,5.6,-191.9,-17.0,-79.4,-102.5,-34.4,-11.3,58.6,12.5,0.3,0.0,-130.0,-52.4,-0.1,6.5,-11.4,9.6,0,516,0,253,
0.2900,-0.4,-11.1,-4.3,-3.9,-0.3,-5.6,4.2,7.9,-153.5,-14.0,-73.3,-113.1,-33.0,-5.2,56.4,9.2,0.2,0.0,-126.9,-51.1,0.0,4.7,-19.7,4.2,0,522,0,254,
0.2933,2.0,-8.0,-2.4,-0.9,5.5,-6.1,2.2,8.8,-127.8,-12.0,-68.4,-131.1,-28.0,-0.1,58.1,5.3,0.0,0.0,-124.6,-45.4,0.0,1.3,-27.2,-0.3,0,528,0,255,
0.2967,3.9,-6.7,-1.9,1.3,6.9,-7.6,0.2,8.6,-122.5,-11.2,-65.7,-150.2,-21.7,2.1,61.8,1.4,0.0,0.0,-123.6,-45.9,-0.1,-0.7,-31.3,0.0,0,534,0,0,
0.3000,4.4,-7.3,-2.9,2.3,5.3,-8.7,-1.2,7.9,-134.5,-11.5,-65.6,-161.9,-17.4,1.1,64.3,-0.5,0.0,0.1,-125.3,-57.3,-0.1,0.0,-30.9,5.9,0,540,0,1,
0.3033,3.3,-9.2,-5.1,1.5,2.5,-8.6,-2.1,7.3,-153.7,-13.0,-67.8,-160.9,-16.5,-2.1,64.5,1.7,0.0,0.1,-131.0,-73.6,-0.1,2.8,-27.5,13.6,0,546,0,2,
0.3067,1.2,-10.9,-8.4,-1.1,-0.4,-7.6,-2.9,6.7,-168.8,-15.8,-71.3,-148.5,-18.3,-5.4,64.4,9.0,0.1,0.1,-140.6,-83.5,0.0,5.2,-24.5,17.6,0,552,0,3,
0.3100,-0.6,-11.5,-11.6,-4.3,-2.3,-6.6,-4.4,6.1,-174.4,-19.6,-74.9,-132.5,-20.3,-6.8,67.0,19.6,0.2,0.0,-151.8,-80.9,0.0,5.0,-24.4,14.9,0,558,0,4,
0.3133,-0.9,-10.6,-13.2,-6.1,-2.5,-6.6,-6.5,5.9,-172.2,-22.8,-77.0,-122.3,-20.2,-5.8,74.2,29.6,0.3,0.0,-160.8,-69.8,0.0,1.6,-26.9,7.2,0,564,0,5,
0.3167,0.5,-8.5,-11.8,-4.9,-0.3,-7.4,-8.5,6.9,-167.5,-23.7,-77.0,-123.7,-17.2,-2.5,84.3,35.9,0.3,0.0,-164.9,-60.3,0.0,-3.2,-29.7,-0.3,0,570,0,6,
0.3200,2.8,-5.6,-7.6,-0.9,3.7,-8.3,-9.5,9.4,-162.7,-21.1,-75.3,-135.9,-12.5,1.8,93.7,37.9,0.2,0.1,-164.0,-59.3,-0.1,-7.0,-31.0,-2.5,0,576,0,7,
0.3233,4.5,-2.9,-2.4,3.7,7.0,-8.5,-9.2,12.6,-156.0,-16.2,-73.3,-152.8,-8.0,6.2,99.0,37.5,0.2,0.1,-161.4,-64.9,-0.1,-8.2,-31.7,1.6,0,582,0,8,
0.3267,4.9,-1.3,0.7,6.0,7.0,-8.1,-8.3,14.8,-144.8,-11.6,-73.0,-168.2,-5.3,9.6,99.3,38.0,0.2,0.1,-161.5,-69.0,-0.1,-6.9,-34.1,8.5,0,588,0,9,
0.3300,3.8,-1.3,-0.1,4.5,2.7,-7.8,-7.6,14.3,-132.8,-10.3,-75.6,-179.2,-5.1,11.4,96.5,41.2,0.1,0.0,-166.8,-64.7,-0.2,-4.5,-39.6,13.4,0,594,0,10,
0.3333,2.0,-2.8,-4.4,0.1,-3.5,-7.7,-7.9,11.2,-130.7,-12.6,-80.8,-187.0,-6.8,11.5,92.8,46.9,0.1,0.0,-176.6,-53.0,-0.2,-2.7,-46.2,13.3,0,600,0,11,
0.3367,0.7,-4.8,-9.5,-4.2,-6.8,-7.4,-8.8,7.1,-149.3,-16.2,-86.7,-193.5,-9.2,10.1,88.8,53.2,0.1,0.0,-186.8,-41.0,-0.1,-2.2,-49.6,9.4,0,606,0,12,
0.3400,0.4,-5.8,-12.0,-5.6,-3.8,-5.8,-9.3,4.8,-188.8,-17.2,-90.9,-198.3,-10.6,8.6,83.9,57.8,0.1,0.0,-193.0,-35.9,0.0,-2.5,-46.6,5.4,0,612,0,13,
0.3433,1.3,-4.5,-10.3,-3.4,4.6,-2.5,-8.6,5.5,-234.3,-13.5,-92.0,-198.2,-9.9,8.2,77.4,59.2,0.1,0.0,-193.3,-38.7,0.1,-2.4,-37.6,4.4,0,618,0,14,
0.3467,3.1,-1.2,-5.8,0.4,13.2,1.2,-7.0,8.6,-263.4,-6.1,-90.8,-190.7,-6.7,9.6,70.0,56.6,0.2,0.1,-189.1,-44.9,0.1,-1.8,-27.1,6.8,0,624,0,15,
0.3500,5.2,2.3,-1.6,2.8,15.8,3.4,-5.3,11.5,-262.0,1.1,-89.2,-176.4,-2.2,12.6,64.0,50.2,0.2,0.1,-184.2,-49.3,0.1,-1.1,-20.3,10.1,0,630,0,16,
0.3533,6.6,3.9,-0.5,1.8,9.7,2.4,-4.5,11.7,-235.9,4.4,-89.6,-160.4,1.5,15.8,61.0,41.1,0.2,0.1,-182.3,-51.2,0.0,-1.4,-19.0,12.0,0,636,0,17,
0.3567,6.8,2.3,-3.3,-2.5,-2.4,-1.4,-4.9,8.5,-208.4,2.3,-92.5,-149.2,2.2,17.4,60.4,31.5,0.2,0.1,-185.1,-54.6,-0.1,-3.0,-21.3,11.3,0,642,0,18,
0.3600,5.4,-2.0,-8.7,-7.6,-14.0,-6.1,-6.3,3.4,-203.9,-3.0,-96.7,-146.9,-0.9,16.8,59.0,24.7,0.1,0.2,-191.2,-63.3,-0.1,-4.9,-23.1,9.2,0,648,0,19,
0.3633,3.0,-6.9,-13.8,-11.2,-19.6,-9.4,-8.0,-1.0,-230.3,-7.7,-100.2,-153.7,-6.3,14.4,53.7,22.8,0.0,0.3,-197.6,-76.6,-0.1,-6.0,-22.2,7.2,0,654,0,20,
0.3667,0.8,-10.5,-16.9,-12.5,-18.2,-10.3,-9.7,-2.9,-274.0,-9.0,-101.9,-166.9,-11.2,11.8,43.4,25.4,0.0,0.2,-201.6,-88.1,0.0,-6.0,-19.5,5.9,0,660,0,21,
0.3700,-0.1,-11.5,-17.9,-12.3,-13.7,-10.2,-11.5,-2.5,-310.8,-6.9,-102.3,-182.9,-13.1,10.5,30.2,29.7,0.0,0.1,-201.9,-90.8,0.1,-5.7,-18.2,4.5,0,666,0,22,
0.3733,0.9,-10.3,-17.9,-12.6,-11.4,-10.9,-13.5,-1.2,-324.9,-3.2,-102.5,-199.2,-11.4,11.2,17.4,31.9,0.1,0.0,-199.5,-82.1,0.1,-6.7,-20.4,2.0,0,672,0,23,
0.3767,3.3,-8.2,-18.0,-14.2,-14.0,-13.3,-15.8,-0.6,-320.0,-0.4,-103.3,-213.4,-7.6,13.2,7.0,30.1,0.2,0.0,-196.5,-66.7,0.0,-9.4,-25.7,-1.8,0,678,0,24,
0.3800,5.7,-6.3,-18.3,-16.9,-19.8,-16.5,-18.2,-1.3,-314.7,0.3,-103.7,-223.3,-4.3,15.2,-1.2,24.8,0.3,0.0,-195.2,-54.3,-0.1,-12.9,-31.2,-5.8,0,684,0,25,
0.3833,6.7,-5.2,-18.2,-19.2,-24.6,-18.5,-19.9,-2.8,-325.9,-0.5,-102.5,-227.4,-3.1,15.9,-8.8,18.9,0.3,0.1,-197.1,-54.1,-0.1,-15.2,-33.4,-8.2,0,690,0,26,
0.3867,5.8,-5.0,-17.0,-20.2,-24.4,-18.1,-20.3,-4.1,-355.0,-1.6,-99.4,-227.1,-4.0,14.8,-17.6,14.3,0.2,0.1,-201.7,-70.0,-0.1,-15.4,-30.9,-8.3,0,696,0,27,
0.3900,3.5,-5.4,-15.4,-19.8,-18.8,-15.7,-18.9,-4.6,-386.2,-2.1,-95.6,-226.7,-5.8,12.3,-27.4,11.4,0.2,0.1,-207.5,-98.3,0.0,-14.7,-24.4,-6.3,0,702,0,28,
0.3933,0.9,-6.4,-14.5,-19.0,-11.0,-13.3,-16.1,-4.4,-398.5,-2.0,-93.0,-230.5,-7.4,9.6,-36.9,8.9,0.1,0.0,-212.2,-128.9,0.1,-15.0,-16.9,-4.1,0,708,0,29,
0.3967,-1.0,-7.9,-15.3,-18.7,-5.3,-12.8,-12.9,-4.2,-382.4,-2.1,-92.9,-238.7,-8.5,7.5,-44.5,5.8,0.0,-0.1,-213.9,-149.1,0.1,-17.2,-11.5,-3.3,0,714,0,30,
0.4000,-1.9,-9.4,-17.5,-19.0,-4.9,-15.0,-10.8,-4.4,-347.8,-2.7,-94.5,-245.5,-9.5,6.6,-49.5,2.4,0.0,-0.2,-212.2,-149.8,0.2,-20.0,-10.4,-5.0,0,720,0,31,
0.4033,-2.3,-10.2,-19.9,-19.2,-9.8,-18.8,-10.9,-5.2,-318.5,-3.6,-95.7,-242.1,-10.5,7.0,-52.6,0.1,0.1,-0.1,-208.4,-130.1,0.1,-20.7,-13.7,-8.7,0,726,0,32,
0.4067,-2.9,-9.9,-20.5,-18.8,-17.1,-22.3,-13.1,-6.4,-316.8,-4.1,-94.6,-223.4,-11.2,8.2,-55.2,-0.6,0.1,-0.1,-204.6,-98.5,0.1,-17.9,-19.2,-12.5,0,732,0,33,
0.4100,-3.8,-8.4,-18.6,-17.5,-23.2,-23.8,-15.9,-7.7,-348.6,-3.8,-91.3,-193.4,-10.6,9.6,-58.3,-0.5,0.0,-0.1,-202.5,-69.2,0.0,-12.6,-23.1,-13.9,0,738,0,34,
0.4133,-4.8,-6.2,-14.9,-15.9,-25.6,-22.8,-17.0,-8.6,-398.2,-2.6,-87.3,-163.8,-8.8,10.8,-62.3,-1.7,0.0,0.0,-203.0,-54.0,-0.1,-8.1,-21.9,-11.2,0,744,0,35,
0.4167,-5.0,-4.0,-11.0,-14.5,-24.0,-19.4,-14.8,-8.8,-438.1,-1.0,-84.2,-146.6,-6.4,11.9,-66.1,-5.1,0.0,0.0,-205.4,-54.8,-0.2,-6.4,-14.4,-3.9,0,750,0,36,
0.4200,-4.1,-2.3,-8.2,-13.4,-19.7,-14.3,-9.6,-8.1,-446.7,0.3,-82.5,-146.0,-4.4,13.4,-67.8,-9.8,0.0,0.1,-208.3,-63.6,-0.2,-7.1,-2.7,6.1,0,756,0,37,
0.4233,-2.4,-0.7,-6.6,-11.7,-14.2,-8.3,-3.3,-6.5,-423.4,1.2,-80.9,-157.0,-3.1,15.7,-66.4,-13.0,0.0,0.1,-210.4,-69.0,-0.1,-7.5,8.9,15.7,0,762,0,38,
0.4267,-0.4,1.4,-5.0,-8.4,-8.0,-2.5,1.5,-4.4,-387.8,1.9,-77.8,-170.3,-1.6,18.8,-62.6,-12.9,0.1,0.1,-211.2,-66.0,0.0,-5.2,16.9,21.8,0,768,0,39,
0.4300,1.0,4.6,-2.1,-3.2,-0.4,2.2,3.2,-2.0,-365.0,3.1,-73.3,-181.4,1.1,21.7,-59.4,-10.0,0.1,0.1,-210.8,-59.8,0.1,-0.8,20.5,23.3,0,774,0,40,
0.4333,1.6,8.4,2.1,3.2,9.4,5.4,2.2,0.2,-366.4,4.8,-68.7,-192.8,4.6,22.9,-60.6,-7.1,0.0,0.1,-209.8,-61.0,0.1,3.0,22.0,21.5,0,780,0,41,
0.4367,1.6,11.6,6.4,9.1,20.3,7.1,0.3,1.9,-383.0,6.3,-66.5,-209.2,7.2,21.2,-68.6,-7.4,0.0,0.2,-209.0,-75.3,0.0,3.2,24.7,19.2,0,786,0,42,
0.4400,1.5,13.1,9.0,13.0,29.0,7.6,-0.7,3.3,-396.6,6.3,-67.5,-229.0,6.9,16.9,-82.2,-12.3,-0.1,0.2,-208.9,-96.7,0.0,-0.4,29.8,18.7,0,792,0,43,
0.4433,1.4,12.7,9.0,14.0,31.8,7.4,-0.5,4.1,-399.8,3.9,-70.7,-242.4,3.1,11.8,-97.1,-20.4,-0.1,0.2,-209.7,-111.1,0.0,-5.2,35.5,19.8,0,798,0,44,
0.4467,1.2,11.2,6.9,12.7,26.8,6.4,-0.4,4.3,-403.4,-0.5,-73.5,-237.1,-2.2,8.5,-108.7,-28.7,0.0,0.1,-211.2,-106.7,0.1,-8.0,37.8,19.9,0,804,0,45,
0.4500,0.8,9.4,4.5,10.4,16.1,4.1,-1.7,4.1,-424.9,-5.2,-73.7,-210.4,-6.2,8.7,-114.4,-35.0,0.0,0.0,-212.5,-84.2,0.1,-7.5,34.5,16.4,0,810,0,46,
0.4533,0.2,8.2,3.3,8.5,4.7,0.5,-4.8,3.5,-465.2,-8.3,-70.8,-173.0,-6.6,12.0,-114.7,-38.5,0.1,-0.1,-213.1,-55.6,0.2,-5.5,27.0,8.9,0,816,0,47,
0.4567,0.0,7.6,4.1,7.7,-2.3,-3.7,-8.4,2.8,-498.3,-8.4,-66.4,-143.5,-4.0,16.4,-111.8,-40.3,0.1,-0.1,-212.7,-35.7,0.1,-4.6,19.7,0.1,0,822,0,48,
0.4600,0.6,7.3,6.5,8.1,-2.8,-7.4,-10.7,2.5,-484.3,-5.7,-62.6,-134.4,-0.4,19.9,-107.6,-41.3,0.2,0.0,-212.1,-30.7,0.1,-6.1,17.1,-6.1,0,828,0,49,
0.4633,2.1,7.2,9.4,9.0,1.1,-9.2,-10.4,2.5,-401.4,-1.1,-60.6,-143.5,2.4,21.1,-102.7,-41.9,0.2,0.0,-212.2,-35.9,0.1,-8.7,20.5,-7.2,0,834,0,50,
0.4667,4.1,7.6,12.1,10.2,5.2,-9.0,-8.1,2.7,-267.0,3.6,-60.1,-157.6,4.3,20.5,-96.8,-41.6,0.1,0.0,-214.0,-42.2,0.1,-10.1,26.9,-4.0,0,840,0,51,
0.4700,5.8,8.9,14.3,11.3,6.5,-7.2,-5.6,3.1,-132.0,7.5,-60.0,-164.2,6.2,19.3,-90.4,-39.5,0.1,-0.1,-217.4,-45.3,0.1,-8.6,31.8,-0.2,0,846,0,52,
0.4733,6.6,11.0,16.1,12.8,5.6,-4.9,-4.5,3.8,-47.7,10.2,-59.1,-162.7,9.2,18.4,-84.2,-35.8,0.1,-0.1,-221.1,-48.7,0.1,-4.7,32.0,0.7,0,852,0,53,
0.4767,6.6,13.2,17.3,14.8,5.7,-2.7,-5.1,4.8,-31.1,11.9,-57.2,-162.7,12.6,18.1,-79.3,-31.2,0.0,-0.1,-223.5,-58.4,0.0,0.1,28.1,-1.6,0,858,0,54,
0.4800,6.1,14.7,17.8,17.3,9.3,-0.6,-6.2,6.5,-55.8,13.0,-54.8,-173.3,14.9,18.2,-75.5,-26.4,0.0,0.0,-223.6,-75.0,-0.1,3.9,23.5,-4.2,0,864,0,55,
0.4833,5.3,15.0,17.3,19.7,16.1,1.6,-6.4,8.3,-74.0,14.3,-53.2,-192.9,15.0,18.2,-71.5,-21.9,0.0,0.1,-221.6,-91.1,-0.2,6.4,21.5,-3.0,0,870,0,56,
0.4867,4.3,14.6,15.7,20.9,22.6,3.9,-4.7,9.9,-51.9,16.2,-53.3,-209.4,13.5,18.3,-66.5,-17.4,0.0,0.1,-219.3,-96.7,-0.2,8.0,23.5,3.8,0,876,0,57,
0.4900,2.9,14.3,13.1,20.1,24.8,6.2,-1.6,10.6,7.6,18.6,-55.5,-211.5,12.2,18.9,-60.7,-12.8,0.0,0.0,-218.2,-88.1,-0.1,9.4,28.2,14.2,0,882,0,58,
0.4933,1.2,14.4,10.2,17.1,21.5,7.9,1.9,10.6,71.2,21.3,-59.2,-200.0,12.7,20.1,-54.7,-8.2,0.0,0.0,-218.9,-71.4,0.0,10.8,33.3,23.6,0,888,0,59,
0.4967,0.0,14.7,7.7,13.0,15.3,9.1,4.7,10.4,101.6,23.6,-63.0,-188.6,14.9,21.8,-49.0,-4.5,0.0,0.0,-220.4,-58.5,0.1,11.6,37.1,28.6,0,894,0,60,
0.5000,0.0,14.5,6.1,9.3,10.5,9.7,6.4,10.6,83.3,25.0,-65.5,-192.0,17.3,23.6,-42.7,-2.6,0.0,0.0,-221.1,-57.9,0.1,11.5,39.1,28.8,0,900,0,61,
0.5033,1.4,13.1,5.3,7.2,9.7,10.1,7.2,11.4,28.8,24.9,-66.0,-212.7,17.9,25.0,-35.2,-3.1,0.1,0.1,-220.1,-68.9,0.1,10.4,39.8,26.6,0,906,0,62,
0.5067,3.3,10.1,4.5,6.9,12.2,9.9,7.2,12.2,-35.7,23.3,-65.3,-237.5,16.0,25.4,-27.0,-5.8,0.1,0.1,-218.5,-82.7,0.0,8.9,39.1,25.2,0,912,0,63,
0.5100,4.1,6.3,2.8,7.0,14.3,8.7,6.4,12.3,-90.9,20.2,-65.3,-246.9,12.0,24.8,-20.6,-9.7,0.0,0.1,-218.8,-89.2,-0.1,8.0,36.7,25.6,0,918,0,64,
0.5133,2.9,2.6,-0.2,6.1,12.7,6.6,4.9,11.2,-136.3,16.4,-67.4,-231.3,7.6,23.2,-18.3,-14.3,-0.1,0.0,-222.6,-84.0,-0.1,8.6,31.6,26.5,0,924,0,65,
0.5167,0.5,0.4,-3.7,3.8,7.2,4.1,2.7,9.3,-184.0,12.7,-71.2,-197.7,4.4,21.5,-20.3,-19.3,-0.1,-0.1,-229.1,-70.7,-0.1,11.4,24.0,25.6,0,930,0,66,
0.5200,-1.6,0.4,-6.0,1.1,0.7,2.5,0.4,7.4,-243.4,10.2,-74.3,-164.4,3.3,20.4,-23.8,-24.7,-0.1,-0.2,-235.8,-57.7,0.0,15.9,14.6,22.5,0,936,0,67,
0.5233,-1.5,2.3,-6.4,-0.8,-3.1,2.3,-1.5,5.9,-307.3,9.6,-74.1,-147.8,4.4,20.2,-24.8,-29.9,0.0,-0.2,-240.2,-53.5,0.0,20.3,4.9,18.5,0,942,0,68,
0.5267,1.0,4.6,-5.4,-1.5,-2.9,2.8,-2.7,4.7,-351.1,10.4,-70.6,-152.2,6.6,20.5,-21.2,-33.1,0.1,-0.1,-242.6,-61.9,-0.1,21.8,-3.9,15.6,0,948,0,69,
0.5300,4.1,5.2,-5.4,-2.0,-0.7,2.6,-3.4,3.0,-347.2,11.1,-67.7,-170.4,8.2,20.2,-14.0,-32.1,0.2,0.0,-246.0,-81.6,-0.1,18.4,-10.8,14.3,0,954,0,70,
0.5333,5.9,2.8,-8.2,-4.3,0.1,0.3,-3.6,0.4,-285.7,9.9,-71.3,-191.6,7.4,19.0,-6.3,-25.5,0.2,0.0,-253.3,-106.9,-0.1,10.1,-15.4,13.4,0,960,0,71,
0.5367,5.1,-2.0,-13.9,-8.9,-2.6,-3.6,-3.5,-2.7,-187.0,6.3,-84.0,-209.2,3.7,17.3,-0.3,-14.3,0.1,0.0,-264.1,-129.5,-0.1,0.2,-17.4,10.9,0,966,0,72,
0.5400,2.6,-7.1,-19.8,-14.2,-7.5,-7.3,-2.9,-4.8,-95.2,2.2,-101.8,-220.9,-1.3,16.4,4.0,-2.4,0.1,0.1,-273.1,-141.9,0.0,-6.3,-17.2,6.5,0,972,0,73,
0.5433,0.3,-9.5,-21.9,-17.0,-10.9,-8.3,-1.9,-4.5,-53.3,0.8,-114.7,-225.5,-4.7,17.8,8.7,5.8,0.0,0.1,-273.2,-139.7,0.1,-5.4,-15.5,2.3,0,978,0,74,
0.5467,0.0,-8.1,-18.2,-15.2,-10.0,-5.8,-1.0,-1.8,-74.6,5.0,-113.4,-221.2,-3.7,21.4,15.7,7.9,0.0,0.1,-261.0,-123.8,0.1,3.4,-13.5,1.3,0,984,0,75,
0.5500,1.9,-3.6,-10.5,-9.6,-5.0,-1.1,-0.4,1.8,-132.5,14.7,-96.9,-207.6,1.8,25.8,25.0,5.6,0.0,0.1,-239.8,-100.7,0.1,16.3,-12.4,5.0,0,990,0,76,
0.5533,4.4,1.0,-3.4,-3.7,0.7,2.9,-0.3,4.2,-176.2,26.5,-74.9,-190.4,9.1,29.1,35.2,3.4,0.0,0.1,-219.3,-80.1,0.0,27.9,-12.6,12.1,0,996,0,77,
0.5567,6.0,3.3,-1.3,-1.5,3.0,4.1,-0.6,3.9,-165.8,35.1,-62.8,-180.2,14.3,30.3,44.9,5.9,0.0,0.1,-209.3,-70.5,-0.1,33.8,-13.8,19.3,0,1002,0,78,
0.5600,5.7,2.3,-5.4,-4.9,0.4,2.6,-0.6,1.4,-99.5,37.5,-70.9,-186.2,15.0,29.7,53.3,14.5,-0.1,0.1,-213.7,-75.4,-0.1,33.6,-15.2,23.6,0,1008,0,79,
0.5633,4.4,-0.3,-12.9,-11.8,-5.1,0.6,0.0,-1.2,-14.5,34.4,-96.0,-208.3,12.2,28.7,60.5,26.0,-0.1,0.1,-227.5,-91.5,-0.1,30.9,-16.0,24.4,0,1014,0,80,
0.5667,3.2,-2.4,-18.7,-18.0,-9.7,0.7,1.1,-1.9,39.2,30.5,-123.3,-235.7,9.0,28.2,66.0,35.0,-0.2,0.1,-241.2,-110.3,-0.1,30.2,-16.4,23.9,0,1020,0,81,
0.5700,3.4,-2.1,-19.4,-19.9,-10.4,4.1,2.0,0.3,33.1,31.1,-136.6,-254.0,8.3,28.6,68.6,37.7,-0.2,0.2,-247.0,-122.6,-0.1,34.5,-17.3,24.8,0,1026,0,82,
0.5733,5.0,0.7,-15.0,-16.8,-7.1,9.6,2.0,4.2,-25.1,37.8,-131.1,-256.2,10.6,29.0,67.7,34.2,-0.1,0.2,-244.9,-123.6,-0.1,43.0,-19.3,28.9,0,1032,0,83,
0.5767,7.1,4.4,-8.5,-11.0,-2.2,14.9,1.0,8.0,-101.3,47.3,-117.2,-247.5,13.2,29.1,64.7,28.5,0.0,0.1,-242.1,-115.5,-0.1,52.0,-22.8,35.3,0,1038,0,84,
0.5800,8.7,7.4,-3.1,-5.9,1.7,18.0,-0.6,9.9,-160.5,53.2,-112.7,-241.0,13.5,28.6,62.2,25.4,0.1,0.1,-248.0,-106.4,-0.1,57.5,-27.0,41.5,0,1044,0,85,
0.5833,8.9,8.6,-0.4,-3.9,3.6,18.4,-2.3,9.3,-186.0,51.1,-129.3,-246.7,10.3,28.0,63.0,27.1,0.1,0.0,-266.7,-105.3,0.0,57.5,-30.7,44.7,0,1050,0,86,
0.5867,7.9,7.7,0.4,-4.6,4.2,16.7,-3.9,7.2,-180.7,41.5,-162.3,-264.3,5.8,27.4,67.5,32.4,0.1,0.0,-293.1,-116.7,0.1,52.5,-33.1,43.4,0,1056,0,87,
0.5900,6.3,5.1,0.8,-6.3,4.8,14.0,-5.4,4.9,-155.6,30.2,-193.9,-283.7,3.1,26.6,73.3,37.6,0.0,0.0,-315.4,-137.1,0.1,45.3,-34.0,38.0,0,1062,0,88,
0.5933,4.7,1.7,1.7,-7.0,5.9,11.0,-7.0,3.3,-119.2,24.3,-205.9,-293.0,4.4,25.0,76.8,40.3,0.0,0.1,-321.6,-157.3,0.1,38.6,-34.0,30.6,0,1068,0,89,
0.5967,3.6,-1.9,2.1,-5.9,6.6,8.0,-8.5,2.8,-76.4,26.5,-192.4,-287.5,8.6,22.3,75.5,40.6,-0.1,0.1,-307.4,-167.6,0.1,34.3,-33.7,23.7,0,1074,0,90,
0.6000,2.7,-5.1,0.6,-4.0,5.3,5.1,-9.1,2.8,-34.8,33.6,-163.7,-271.6,12.3,18.4,69.1,41.2,-0.1,0.0,-279.2,-163.6,0.0,32.7,-32.8,19.4,0,1080,0,91,
0.6033,1.4,-7.9,-3.8,-3.1,1.2,2.4,-8.6,2.3,-6.9,38.4,-137.9,-254.1,12.3,13.5,59.2,44.4,0.0,-0.1,-251.2,-148.2,-0.1,33.2,-30.0,18.2,0,1086,0,92,
0.6067,-1.0,-10.7,-10.7,-4.4,-5.3,0.2,-7.2,0.5,-3.9,35.8,-127.9,-241.4,7.6,8.5,47.6,50.3,0.0,-0.2,-236.6,-129.8,-0.2,34.8,-24.1,19.2,0,1092,0,93,
0.6100,-4.4,-13.7,-18.2,-8.0,-12.6,-1.8,-6.2,-2.7,-25.1,26.7,-133.6,-234.4,0.3,4.0,35.7,56.2,-0.1,-0.2,-239.5,-116.8,-0.3,36.5,-15.2,20.7,0,1098,0,94,
0.6133,-8.0,-16.6,-24.0,-12.6,-18.6,-3.8,-6.6,-6.4,-53.0,17.5,-144.6,-230.3,-5.4,0.9,24.9,58.4,-0.1,-0.1,-252.4,-112.9,-0.2,38.1,-5.1,21.5,0,1104,0,95,
0.6167,-10.3,-18.2,-26.2,-15.9,-22.1,-5.5,-8.8,-9.1,-61.2,15.4,-149.4,-226.4,-6.3,-0.3,17.4,55.5,-0.2,-0.1,-260.6,-116.2,-0.1,39.5,3.3,21.2,0,1110,0,96,
0.6200,-9.8,-17.1,-24.0,-16.1,-22.5,-6.5,-11.9,-9.5,-32.0,22.7,-144.8,-222.7,-1.6,0.6,16.1,49.1,-0.1,0.0,-252.6,-121.5,0.1,40.7,7.9,20.3,0,1116,0,97,
0.6233,-6.5,-12.9,-17.9,-13.0,-20.7,-6.0,-14.2,-7.1,30.9,35.6,-135.8,-220.6,6.8,3.1,22.8,42.7,-0.1,-0.1,-227.8,-124.4,0.1,41.3,8.3,19.4,0,1122,0,98,
0.6267,-1.3,-6.4,-10.0,-8.2,-17.8,-4.4,-14.2,-3.1,102.2,46.7,-130.7,-221.0,15.6,6.8,36.5,39.4,0.0,-0.1,-196.9,-124.2,0.1,40.3,6.3,18.1,0,1128,0,99,
0.6300,3.6,0.0,-2.6,-4.3,-15.5,-2.7,-12.0,0.5,151.7,51.4,-133.3,-222.7,22.1,11.4,53.7,39.4,0.0,0.0,-175.0,-123.5,0.0,37.2,4.4,15.7,0,1134,0,100,
0.6333,6.7,4.5,2.2,-3.1,-14.5,-2.0,-8.7,2.1,162.6,50.6,-140.9,-224.1,25.4,16.3,69.4,40.0,-0.1,0.1,-170.2,-125.7,-0.1,32.0,4.2,12.0,0,1140,0,101,
0.6367,7.6,6.3,3.8,-4.9,-14.7,-2.9,-5.9,1.4,141.7,49.0,-147.5,-224.3,26.1,21.0,79.4,38.1,-0.1,0.2,-178.8,-132.3,-0.1,26.5,5.4,8.0,0,1146,0,102,
0.6400,7.2,6.5,2.9,-7.8,-14.9,-4.3,-4.4,-0.3,112.2,50.3,-149.2,-224.8,25.6,24.6,81.3,31.8,-0.1,0.2,-187.8,-140.9,0.0,23.2,6.6,5.8,0,1152,0,103,
0.6433,6.6,6.5,1.1,-9.9,-13.9,-4.8,-3.8,-1.2,95.8,54.1,-146.8,-227.1,24.7,26.0,74.2,21.5,0.0,0.2,-185.0,-147.5,0.0,23.6,6.8,7.0,0,1158,0,104,
0.6467,6.4,6.9,-0.5,-10.2,-11.8,-3.7,-3.2,-0.7,97.8,56.5,-144.4,-231.5,23.5,24.5,57.6,9.3,0.1,0.0,-167.0,-149.3,-0.1,27.1,6.1,11.3,0,1164,0,105,
0.6500,6.0,7.7,-1.8,-9.4,-9.8,-1.7,-2.0,0.3,106.2,54.3,-145.3,-236.3,22.1,20.6,31.4,-3.5,0.1,-0.1,-141.4,-147.4,-0.1,30.9,5.8,16.7,0,1170,0,106,
0.6533,4.7,8.1,-3.6,-9.4,-9.4,-0.3,-0.4,-0.1,104.0,47.9,-149.4,-238.9,20.9,15.7,-2.9,-16.8,0.1,-0.2,-119.6,-146.4,-0.1,32.1,6.9,20.8,0,1176,0,107,
0.6567,2.3,7.8,-6.5,-11.3,-11.4,-0.7,0.5,-2.8,84.0,41.4,-153.8,-238.0,20.8,11.7,-41.5,-31.2,0.0,-0.1,-108.8,-151.1,0.1,29.6,9.4,22.5,0,1182,0,108,
0.6600,-0.2,7.5,-10.3,-14.6,-15.0,-2.5,-0.1,-7.3,53.9,38.4,-155.8,-234.2,22.0,9.9,-80.0,-46.6,-0.1,-0.1,-107.4,-162.4,0.2,24.7,12.3,22.4,0,1188,0,109,
0.6633,-1.6,7.8,-14.0,-17.9,-18.5,-4.5,-1.9,-11.5,27.8,38.8,-154.5,-229.1,24.0,9.8,-116.1,-61.5,-0.2,0.0,-107.9,-175.9,0.2,20.3,14.7,21.9,0,1194,0,110,
0.6667,-1.6,8.6,-16.8,-19.9,-20.7,-5.4,-3.9,-13.8,14.1,39.1,-151.8,-224.1,25.7,10.4,-151.3,-73.7,-0.2,-0.1,-103.8,-184.5,0.2,18.2,16.6,21.4,0,1200,0,111,
0.6700,-0.9,9.0,-18.7,-20.6,-21.9,-5.4,-5.0,-13.9,9.8,35.4,-149.9,-220.0,25.8,10.2,-189.9,-82.0,-0.1,-0.1,-94.2,-183.3,0.0,17.9,18.9,20.2,0,1206,0,112,
0.6733,-1.2,7.8,-20.6,-21.3,-23.6,-6.0,-5.2,-13.1,6.6,27.4,-150.2,-217.9,23.4,8.6,-234.1,-86.8,-0.1,-0.2,-84.2,-173.6,-0.2,16.9,22.3,16.9,0,1212,0,113,
0.6767,-3.3,4.5,-23.7,-23.6,-27.2,-8.6,-5.3,-13.3,1.3,18.2,-152.6,-219.8,18.7,5.9,-280.9,-90.0,0.0,-0.1,-79.9,-162.1,-0.2,13.4,26.8,10.7,0,1218,0,114,
0.6800,-7.2,-0.3,-28.3,-27.9,-32.9,-13.5,-6.2,-15.3,-0.3,11.6,-156.1,-227.4,12.3,2.7,-321.4,-92.9,0.0,0.0,-83.7,-156.3,-0.2,7.3,31.2,2.7,0,1224,0,115,
0.6833,-11.4,-5.2,-33.7,-33.3,-39.3,-19.4,-8.1,-18.7,8.8,8.7,-159.9,-240.5,5.2,-0.5,-346.1,-95.1,0.1,0.2,-93.4,-159.5,-0.1,0.5,34.5,-5.4,0,1230,0,116,
0.6867,-14.7,-9.3,-38.5,-38.1,-44.2,-24.6,-10.3,-22.1,24.9,7.3,-163.3,-255.2,-1.5,-3.5,-350.1,-95.0,0.2,0.3,-104.3,-169.2,0.0,-4.7,36.4,-11.9,0,1236,0,117,
0.6900,-16.1,-12.3,-40.7,-40.6,-46.1,-27.4,-11.6,-24.2,32.7,4.9,-165.6,-265.2,-6.6,-5.8,-337.0,-91.1,0.2,0.3,-112.9,-179.5,0.0,-7.0,38.0,-16.4,0,1242,0,118,
0.6933,-15.9,-14.0,-39.4,-40.0,-44.6,-27.2,-11.2,-24.4,15.9,1.6,-165.6,-265.2,-8.6,-6.7,-316.0,-84.1,0.3,0.2,-118.5,-185.6,0.0,-7.0,40.6,-18.9,0,1248,0,119,
0.6967,-14.5,-14.3,-34.3,-36.3,-40.2,-24.4,-9.2,-22.8,-26.9,0.3,-162.2,-254.2,-6.9,-4.9,-295.8,-76.9,0.2,0.0,-122.3,-186.1,0.1,-6.0,44.7,-19.9,0,1254,0,120,
0.7000,-12.2,-12.8,-26.6,-30.3,-34.3,-20.1,-6.8,-19.8,-78.3,4.1,-155.1,-236.6,-2.1,-0.3,-280.2,-72.6,0.1,-0.2,-125.7,-182.3,0.2,-4.8,49.6,-19.1,0,1260,0,121,
0.7033,-9.2,-9.2,-18.2,-23.5,-28.1,-15.3,-5.0,-15.9,-115.3,13.2,-145.4,-219.6,4.2,6.3,-267.0,-72.3,0.0,-0.2,-129.4,-175.8,0.2,-3.0,53.7,-16.6,0,1266,0,122,
0.7067,-5.6,-4.2,-11.3,-17.4,-22.9,-10.8,-4.5,-11.7,-129.7,23.8,-135.4,-209.3,9.8,13.0,-251.6,-73.8,0.0,-0.2,-133.5,-167.8,0.2,-0.3,55.4,-12.8,0,1272,0,123,
0.7100,-2.1,0.9,-7.2,-13.6,-19.4,-7.4,-5.2,-7.8,-135.2,30.8,-127.8,-207.4,13.5,17.9,-231.4,-72.7,0.0,-0.1,-138.3,-159.3,0.1,3.3,54.3,-8.6,0,1278,0,124,
0.7133,0.6,4.2,-6.0,-12.5,-17.9,-5.0,-6.2,-4.5,-154.5,31.6,-124.4,-211.2,15.2,20.0,-207.3,-65.7,0.0,0.0,-143.7,-152.3,0.0,7.1,51.2,-5.2,0,1284,0,125,
0.7167,2.4,5.1,-6.3,-13.3,-17.6,-3.1,-6.5,-2.1,-197.3,27.7,-124.2,-216.3,15.9,20.0,-182.9,-52.8,0.0,-0.1,-149.3,-149.3,-0.1,10.2,48.0,-2.6,0,1290,0,126,
0.7200,3.5,3.8,-6.4,-14.6,-17.8,-1.1,-5.2,-0.5,-249.8,23.4,-125.0,-218.9,16.6,19.3,-162.4,-37.4,0.0,-0.1,-154.2,-151.1,-0.1,11.9,45.8,-0.3,0,1296,0,127,
0.7233,4.5,1.6,-5.2,-15.4,-17.8,1.0,-2.3,0.5,-286.5,22.0,-124.3,-218.7,17.6,19.2,-149.2,-24.1,0.0,-0.1,-158.1,-155.8,0.0,12.3,44.9,2.5,0,1302,0,128,
0.7267,5.5,-0.3,-3.4,-15.7,-18.1,2.2,1.5,0.4,-293.5,23.5,-121.8,-217.3,18.6,19.8,-145.9,-15.8,0.0,-0.1,-163.1,-160.3,0.1,11.8,44.4,5.2,0,1308,0,129,
0.7300,5.7,-1.6,-2.6,-16.5,-19.3,1.2,4.7,-1.1,-281.6,25.2,-119.6,-217.6,19.2,19.7,-154.1,-11.9,0.0,-0.1,-172.1,-162.9,0.1,10.1,43.2,6.6,0,1314,0,130,
0.7333,4.6,-2.4,-3.7,-18.1,-21.5,-2.1,6.2,-3.8,-275.3,24.3,-120.4,-220.4,19.0,17.7,-173.3,-9.5,0.0,0.0,-186.7,-164.6,0.1,7.5,41.1,5.7,0,1320,0,131,
0.7367,1.8,-3.0,-6.3,-19.7,-23.4,-6.1,5.8,-6.5,-289.0,20.6,-124.1,-224.3,18.8,13.5,-200.1,-5.2,0.1,0.1,-204.4,-167.2,0.0,4.8,39.2,3.2,0,1326,0,132,
0.7400,-1.6,-3.3,-8.0,-19.2,-23.3,-8.3,4.5,-8.0,-311.9,17.1,-127.4,-226.0,19.1,8.5,-228.6,2.0,0.1,0.2,-219.4,-170.7,0.0,3.5,39.1,1.4,0,1332,0,133,
0.7433,-4.2,-3.0,-7.0,-15.5,-20.0,-6.8,3.8,-7.3,-317.8,17.0,-125.6,-222.8,20.7,4.7,-252.9,10.6,0.2,0.2,-226.3,-172.0,0.0,5.2,41.3,2.7,0,1338,0,134,
0.7467,-5.1,-2.1,-3.3,-9.5,-14.9,-2.5,4.4,-5.5,-291.6,21.4,-116.8,-215.0,23.2,3.4,-269.6,17.6,0.3,0.2,-225.0,-167.5,0.0,9.7,44.8,7.2,0,1344,0,135,
0.7500,-4.7,-1.6,0.4,-4.7,-11.2,1.1,5.8,-4.5,-247.2,26.9,-105.2,-206.3,25.6,3.9,-279.2,20.6,0.3,0.2,-221.3,-157.3,0.1,14.2,46.9,12.1,0,1350,0,136,
0.7533,-3.9,-3.0,0.6,-4.7,-12.0,0.6,6.5,-6.3,-218.8,28.4,-98.9,-202.2,26.0,3.8,-284.7,18.9,0.2,0.1,-223.7,-147.0,0.1,15.4,45.2,13.7,0,1356,0,137,
0.7567,-3.8,-6.7,-4.4,-10.4,-18.2,-5.1,5.1,-10.9,-232.5,22.4,-104.2,-205.2,23.2,1.1,-288.6,13.8,0.0,0.0,-236.2,-143.7,0.1,11.2,38.8,10.1,0,1362,0,138,
0.7600,-4.3,-11.4,-12.9,-19.1,-26.7,-13.6,1.7,-16.0,-282.0,10.2,-120.5,-213.1,17.7,-4.6,-291.2,7.8,-0.1,0.0,-254.4,-150.3,0.0,3.0,29.7,2.9,0,1368,0,139,
0.7633,-4.5,-14.6,-20.3,-25.8,-32.7,-19.9,-2.4,-18.6,-332.2,-2.1,-138.7,-219.2,11.8,-10.7,-291.0,2.8,-0.1,0.0,-268.1,-162.1,-0.1,-4.8,20.9,-3.3,0,1374,0,140,
0.7667,-3.4,-14.0,-22.4,-26.5,-32.4,-20.4,-5.1,-17.3,-347.0,-7.4,-147.9,-217.4,9.2,-13.8,-286.9,-0.7,-0.1,0.0,-268.4,-170.3,-0.1,-7.6,15.2,-4.6,0,1380,0,141,
0.7700,-1.2,-9.3,-18.2,-21.2,-26.0,-15.2,-5.3,-12.9,-318.0,-1.8,-142.3,-206.7,12.2,-11.8,-279.4,-3.8,-0.1,0.0,-254.0,-168.9,-0.1,-3.8,13.6,-0.4,0,1386,0,142,
0.7733,1.0,-2.4,-10.7,-13.8,-17.5,-7.9,-3.9,-8.5,-268.6,12.5,-126.3,-192.6,20.2,-5.8,-271.0,-8.0,0.0,-0.1,-232.6,-159.8,0.0,3.6,14.2,5.7,0,1392,0,143,
0.7767,1.8,3.2,-5.0,-9.3,-11.9,-3.3,-2.5,-7.1,-231.7,28.3,-111.3,-183.5,29.4,0.6,-264.0,-14.2,0.0,-0.2,-215.3,-151.3,0.1,9.5,14.4,9.0,0,1398,0,144,
0.7800,0.6,4.6,-4.7,-10.7,-12.6,-3.8,-2.9,-9.5,-222.0,38.2,-107.8,-185.1,35.1,3.5,-259.6,-22.0,0.0,-0.2,-209.4,-151.0,0.1,10.3,11.9,6.8,0,1404,0,145,
0.7833,-2.2,1.1,-10.1,-17.2,-18.8,-8.5,-5.7,-14.3,-227.3,38.7,-118.4,-196.4,34.6,1.3,-256.9,-29.9,0.0,-0.2,-214.5,-160.1,0.2,6.4,6.4,0.4,0,1410,0,146,
0.7867,-5.3,-5.6,-18.4,-25.2,-27.1,-13.8,-9.6,-18.5,-225.1,31.6,-136.9,-211.2,28.8,-4.4,-253.8,-36.7,0.0,0.0,-224.8,-172.8,0.2,1.9,-0.6,-6.1,0,1416,0,147,
0.7900,-7.8,-12.7,-25.8,-31.5,-34.0,-17.0,-12.7,-20.5,-205.4,22.4,-153.6,-222.7,21.4,-10.5,-248.3,-42.2,0.0,0.1,-234.3,-181.7,0.2,0.9,-6.6,-9.6,0,1422,0,148,
0.7933,-9.6,-18.1,-30.5,-35.1,-38.0,-17.6,-13.5,-20.4,-179.5,16.2,-162.5,-228.2,16.3,-14.3,-239.2,-47.0,0.0,0.2,-241.3,-184.1,0.2,4.2,-9.8,-9.6,0,1428,0,149,
0.7967,-10.9,-21.0,-32.6,-37.2,-40.1,-17.3,-11.8,-19.8,-165.5,14.6,-164.5,-229.6,14.6,-16.0,-226.5,-50.9,0.0,0.1,-247.7,-183.3,0.1,9.0,-10.1,-9.0,0,1434,0,150,
0.8000,-12.3,-21.9,-33.7,-39.3,-42.5,-18.5,-8.6,-20.3,-169.0,16.2,-165.0,-230.4,14.8,-17.1,-211.4,-52.7,-0.1,0.1,-256.4,-185.4,0.0,11.2,-8.3,-10.7,0,1440,0,151,
0.8033,-14.1,-22.0,-34.9,-42.4,-46.0,-22.1,-5.3,-22.6,-176.6,17.9,-168.4,-232.5,14.4,-19.6,-196.2,-50.2,-0.1,0.0,-268.1,-193.4,-0.1,8.5,-6.0,-15.5,0,1446,0,152,
0.8067,-16.2,-22.3,-36.4,-45.7,-50.3,-26.7,-3.0,-25.8,-168.9,17.5,-174.9,-235.6,12.4,-23.8,-183.7,-43.2,0.0,0.0,-281.9,-205.4,-0.2,2.2,-3.9,-21.3,0,1452,0,153,
0.8100,-18.3,-23.5,-37.7,-48.3,-54.0,-30.4,-1.6,-28.8,-138.9,14.8,-181.3,-238.2,9.4,-28.7,-175.6,-34.6,0.0,0.0,-296.3,-216.9,-0.2,-4.0,-2.0,-24.9,0,1458,0,154,
0.8133,-20.0,-25.4,-38.6,-49.8,-56.4,-31.7,-0.4,-31.0,-98.9,11.2,-184.4,-240.2,7.4,-32.7,-172.3,-29.4,0.0,0.0,-310.5,-223.9,-0.2,-7.4,0.0,-24.5,0,1464,0,155,
0.8167,-20.9,-27.7,-39.2,-50.6,-57.5,-30.8,1.3,-32.3,-67.9,8.6,-183.7,-242.8,7.2,-34.7,-172.0,-31.4,-0.1,0.0,-323.0,-225.9,-0.1,-7.4,2.5,-21.1,0,1470,0,156,
0.8200,-20.7,-29.6,-39.5,-51.0,-57.7,-28.9,3.8,-33.1,-53.3,8.2,-180.7,-246.5,8.5,-34.9,-172.2,-40.0,-0.1,0.0,-330.4,-224.3,0.0,-5.1,4.7,-17.5,0,1476,0,157,
0.8233,-19.4,-30.4,-39.0,-50.6,-57.3,-27.3,6.1,-33.3,-43.4,10.1,-177.7,-250.4,9.9,-34.3,-171.5,-49.3,-0.1,0.0,-328.3,-220.8,0.0,-1.9,6.0,-15.6,0,1482,0,158,
0.8267,-17.6,-29.7,-37.1,-48.7,-56.2,-26.4,7.3,-32.8,-18.7,13.1,-175.0,-251.9,10.3,-33.8,-170.0,-52.1,0.0,0.1,-315.2,-215.9,0.0,1.6,5.5,-15.4,0,1488,0,159,
0.8300,-16.1,-27.9,-33.5,-44.9,-54.1,-25.9,6.6,-31.6,28.6,15.4,-172.1,-248.8,9.3,-33.9,-168.9,-45.1,0.1,0.0,-294.9,-209.6,0.0,5.4,3.2,-15.5,0,1494,0,160,
0.8333,-15.7,-25.5,-29.0,-40.3,-51.6,-25.1,4.3,-29.6,85.8,15.1,-168.5,-241.3,7.3,-35.0,-168.8,-31.6,0.1,0.0,-275.9,-202.6,0.0,8.8,-0.3,-14.6,0,1500,0,161,
0.8367,-16.6,-23.1,-24.5,-36.1,-49.1,-23.9,1.9,-27.2,129.4,11.7,-164.6,-231.4,4.9,-37.2,-168.3,-20.0,0.1,0.0,-265.9,-195.6,0.0,10.4,-4.3,-12.8,0,1506,0,162,
0.8400,-17.8,-20.7,-20.7,-33.0,-46.8,-22.2,0.8,-24.6,144.9,6.6,-161.0,-222.0,3.1,-39.9,-164.7,-18.1,0.0,-0.1,-266.7,-189.1,0.0,9.3,-8.2,-11.3,0,1512,0,163,
0.8433,-17.9,-17.8,-17.2,-30.3,-44.0,-20.3,1.6,-21.5,140.4,2.8,-157.5,-214.7,3.4,-41.8,-155.9,-28.1,0.0,0.0,-272.0,-183.1,0.0,6.2,-11.8,-11.0,0,1518,0,164,
0.8467,-16.0,-14.1,-13.2,-26.5,-39.9,-18.3,3.7,-17.7,139.3,2.7,-153.0,-209.5,6.7,-41.6,-142.2,-45.6,0.0,0.0,-272.5,-177.8,0.0,3.4,-15.5,-11.5,0,1524,0,165,
0.8500,-12.4,-10.1,-8.3,-21.1,-34.4,-16.0,5.6,-13.2,160.4,6.8,-146.6,-205.1,12.9,-38.7,-126.5,-63.3,0.1,0.1,-263.4,-174.8,-0.1,3.1,-19.8,-11.4,0,1530,0,166,
0.8533,-8.6,-6.8,-3.2,-14.9,-28.3,-13.4,6.3,-8.8,202.2,12.9,-139.0,-199.8,19.6,-34.3,-112.8,-75.2,0.2,0.2,-248.0,-176.3,-0.1,5.8,-25.1,-9.7,0,1536,0,167,
0.8567,-6.1,-5.3,0.6,-10.1,-23.5,-10.7,5.4,-5.2,245.0,17.3,-132.2,-191.9,23.3,-30.4,-103.4,-79.9,0.3,0.2,-236.3,-182.2,0.0,9.9,-31.2,-6.6,0,1542,0,168,
0.8600,-5.8,-5.6,2.1,-8.2,-20.9,-8.2,4.1,-3.4,268.7,17.6,-128.4,-180.2,21.6,-28.8,-97.6,-79.5,0.2,0.1,-237.6,-189.5,0.1,13.4,-36.7,-3.7,0,1548,0,169,
0.8633,-6.8,-7.1,1.4,-9.4,-20.7,-6.5,3.3,-3.4,270.0,13.9,-128.3,-164.6,14.8,-29.6,-92.2,-77.3,0.2,0.0,-253.7,-192.5,0.2,15.6,-39.8,-2.5,0,1554,0,170,
0.8667,-8.1,-8.7,-0.4,-12.0,-22.1,-6.0,3.4,-4.8,263.6,8.7,-130.7,-147.1,6.1,-31.4,-83.9,-74.8,0.1,0.0,-277.9,-187.5,0.2,17.2,-39.0,-3.5,0,1560,0,171,
0.8700,-8.5,-10.2,-2.1,-14.4,-24.2,-7.0,3.6,-6.7,267.9,4.5,-133.6,-130.8,-0.7,-32.5,-71.2,-72.1,-0.1,0.0,-299.1,-175.3,0.1,19.2,-34.1,-5.7,0,1566,0,172,
0.8733,-7.9,-11.5,-3.3,-15.8,-26.7,-9.5,3.1,-8.6,288.7,2.5,-135.6,-119.0,-3.5,-31.8,-55.4,-68.8,-0.2,0.0,-308.4,-161.6,0.0,21.6,-27.2,-7.6,0,1572,0,173,
0.8767,-6.8,-13.1,-4.5,-16.4,-29.7,-12.9,1.1,-10.3,316.2,2.1,-136.4,-112.8,-3.4,-29.7,-39.4,-64.7,-0.2,0.1,-304.0,-153.0,0.0,22.7,-21.5,-8.5,0,1578,0,174,
0.8800,-5.9,-15.1,-5.9,-17.1,-32.9,-16.5,-1.7,-11.6,336.2,2.5,-136.0,-111.1,-2.6,-27.4,-25.9,-60.3,-0.2,0.1,-291.0,-152.7,-0.1,21.1,-19.6,-9.0,0,1584,0,175,
0.8833,-5.6,-17.0,-7.9,-18.1,-35.6,-19.4,-4.0,-12.6,343.4,3.3,-134.6,-112.2,-3.1,-25.5,-16.2,-55.8,-0.2,0.0,-278.4,-159.0,-0.1,16.7,-21.9,-9.9,0,1590,0,176,
0.8867,-5.9,-18.6,-10.3,-19.5,-37.0,-20.9,-4.8,-13.6,344.2,4.7,-132.7,-115.2,-5.1,-24.2,-10.0,-50.9,-0.1,-0.1,-274.4,-167.2,-0.1,11.2,-25.7,-11.9,0,1596,0,177,
0.8900,-7.3,-20.4,-13.2,-21.3,-37.0,-21.2,-4.1,-15.1,347.4,6.2,-131.1,-120.6,-7.7,-23.8,-6.3,-45.1,0.0,-0.2,-281.9,-174.0,-0.1,6.6,-27.9,-14.7,0,1602,0,178,
0.8933,-10.1,-23.1,-16.9,-24.2,-36.7,-21.0,-2.9,-17.6,354.1,6.6,-131.0,-128.9,-10.3,-24.8,-3.8,-38.5,0.1,-0.2,-297.0,-178.9,0.0,3.5,-26.5,-17.7,0,1608,0,179,
0.8967,-14.3,-27.1,-21.7,-28.5,-37.6,-21.2,-2.5,-21.3,356.8,4.4,-132.8,-139.0,-13.2,-27.8,-0.4,-31.9,0.0,-0.1,-309.9,-184.3,0.0,0.7,-22.4,-20.6,0,1614,0,180,
0.9000,-19.2,-31.9,-26.8,-34.0,-40.4,-22.7,-3.5,-25.8,349.7,-0.3,-135.8,-147.6,-17.2,-32.4,5.7,-26.3,0.0,0.1,-309.6,-191.9,0.1,-3.4,-18.4,-23.2,0,1620,0,181,
0.9033,-23.5,-36.0,-31.3,-39.6,-44.4,-25.5,-5.5,-29.8,338.5,-5.6,-138.2,-151.9,-21.9,-36.9,16.1,-22.1,-0.1,0.2,-289.7,-201.4,0.1,-9.3,-17.0,-25.8,0,1626,0,182,
0.9067,-26.2,-38.4,-34.0,-44.0,-48.1,-28.7,-7.4,-32.4,338.3,-9.4,-138.6,-151.5,-26.2,-39.2,30.5,-19.3,-0.1,0.1,-252.5,-210.5,0.0,-15.6,-18.2,-28.2,0,1632,0,183,
0.9100,-27.1,-38.8,-34.9,-46.3,-50.5,-31.5,-8.6,-33.4,360.1,-10.3,-137.3,-148.9,-28.7,-38.2,46.7,-17.3,-0.1,0.0,-208.0,-216.5,-0.1,-20.3,-20.2,-29.8,0,1638,0,184,
0.9133,-26.7,-38.4,-34.8,-47.0,-51.5,-32.9,-9.0,-33.3,397.8,-9.2,-135.6,-146.7,-29.6,-35.1,61.3,-15.6,-0.1,-0.2,-168.3,-218.1,-0.2,-21.9,-20.6,-29.9,0,1644,0,185,
0.9167,-26.1,-38.1,-34.4,-46.8,-51.8,-32.9,-9.5,-32.9,428.9,-7.8,-134.8,-145.8,-30.0,-32.3,72.1,-13.6,-0.1,-0.2,-141.4,-215.9,-0.2,-20.9,-18.8,-28.3,0,1650,0,186,
0.9200,-25.3,-38.0,-33.7,-46.2,-52.1,-31.7,-10.8,-32.6,431.5,-7.3,-134.4,-144.5,-31.4,-31.4,78.9,-11.2,0.0,-0.2,-128.6,-211.8,-0.2,-18.7,-16.1,-25.5,0,1656,0,187,
0.9233,-24.0,-37.2,-32.2,-44.7,-51.9,-29.9,-12.6,-31.9,402.5,-7.4,-132.6,-141.2,-34.2,-31.6,83.7,-7.8,0.1,-0.1,-127.1,-208.0,-0.1,-17.2,-14.9,-22.1,0,1662,0,188,
0.9267,-21.5,-34.7,-29.3,-41.7,-50.3,-27.9,-14.2,-29.8,361.4,-6.7,-128.0,-136.5,-37.5,-30.7,88.9,-3.5,0.2,0.0,-134.5,-206.4,0.0,-16.9,-16.5,-18.9,0,1668,0,189,
0.9300,-17.8,-30.6,-25.4,-37.1,-46.9,-25.8,-15.0,-26.1,335.7,-4.6,-121.3,-132.8,-40.1,-26.9,95.2,1.1,0.2,0.0,-151.0,-207.6,-0.1,-17.3,-20.3,-16.4,0,1674,0,190,
0.9333,-13.8,-25.9,-21.7,-31.7,-41.9,-23.6,-14.9,-21.4,338.0,-2.1,-114.8,-131.6,-41.0,-20.5,101.5,4.4,0.1,0.0,-176.0,-210.9,-0.1,-17.6,-24.5,-14.9,0,1680,0,191,
0.9367,-10.8,-21.7,-18.9,-26.9,-36.8,-21.4,-14.6,-17.1,356.9,-0.3,-110.8,-131.9,-40.4,-13.5,105.8,5.0,0.1,-0.1,-205.0,-214.1,-0.1,-16.9,-27.7,-14.6,0,1686,0,192,
0.9400,-9.0,-18.6,-17.0,-23.3,-32.9,-19.5,-15.2,-14.3,367.5,0.2,-108.9,-130.4,-38.6,-8.3,107.5,2.5,0.1,-0.2,-228.9,-214.7,0.0,-15.1,-29.7,-15.6,0,1692,0,193,
0.9433,-7.9,-16.0,-15.2,-20.7,-30.7,-18.1,-16.8,-13.1,354.0,-0.1,-107.0,-125.8,-35.9,-5.2,108.0,-1.7,0.1,-0.2,-239.5,-211.9,0.1,-12.4,-31.2,-17.6,0,1698,0,194,
0.9467,-6.1,-13.3,-12.7,-18.5,-29.6,-17.3,-18.9,-12.5,323.2,-0.3,-103.1,-120.5,-32.8,-3.4,109.1,-5.0,0.1,-0.2,-236.4,-206.8,0.3,-9.4,-32.8,-19.6,0,1704,0,195,
0.9500,-3.0,-10.3,-9.9,-16.1,-29.0,-16.6,-20.3,-11.2,297.1,-0.4,-97.8,-119.8,-30.3,-1.6,111.7,-5.6,0.0,-0.2,-227.8,-202.6,0.3,-6.4,-34.1,-20.5,0,1710,0,196,
0.9533,1.0,-7.9,-7.8,-13.7,-28.1,-15.6,-20.1,-8.3,291.9,-1.4,-94.3,-127.0,-29.7,0.2,114.4,-3.0,-0.1,-0.1,-225.1,-201.8,0.2,-3.6,-33.7,-19.4,0,1716,0,197,
0.9567,4.5,-6.8,-7.4,-11.9,-26.9,-14.0,-18.6,-4.3,302.2,-4.0,-95.4,-140.2,-31.9,0.7,115.0,1.0,-0.1,0.1,-234.1,-204.6,0.0,-1.2,-30.8,-16.4,0,1722,0,198,
0.9600,6.0,-7.3,-8.5,-11.3,-25.4,-12.2,-17.0,-0.8,305.4,-7.7,-100.5,-153.4,-35.9,-0.8,112.3,4.4,-0.1,0.1,-250.6,-209.4,-0.1,0.5,-26.1,-12.9,0,1728,0,199,
0.9633,5.0,-8.8,-10.0,-11.7,-23.7,-11.2,-16.4,0.8,281.3,-10.5,-106.0,-161.4,-39.6,-3.7,107.1,6.1,0.0,0.1,-264.8,-214.2,-0.1,0.9,-22.0,-10.5,0,1734,0,200,
0.9667,2.3,-10.7,-10.9,-12.7,-21.6,-11.7,-17.1,-0.1,230.5,-10.7,-107.1,-164.0,-40.9,-6.1,102.1,6.7,0.1,-0.1,-270.4,-218.8,0.0,-0.4,-20.8,-10.7,0,1740,0,201,
0.9700,-0.9,-12.5,-11.1,-13.6,-19.5,-13.7,-18.4,-3.0,173.0,-8.6,-102.5,-164.8,-39.7,-6.7,98.9,8.0,0.2,-0.2,-269.2,-224.3,0.0,-3.4,-23.1,-13.1,0,1746,0,202,
0.9733,-3.4,-14.3,-11.1,-14.0,-18.0,-16.4,-19.3,-6.2,130.0,-6.4,-95.1,-166.6,-37.4,-6.0,96.9,11.0,0.3,-0.3,-268.7,-231.3,0.1,-7.6,-27.2,-16.3,0,1752,0,203,
0.9767,-5.2,-16.0,-11.5,-13.7,-18.1,-18.4,-18.9,-8.4,105.6,-6.5,-89.5,-167.1,-36.5,-6.1,93.5,15.5,0.2,-0.2,-274.2,-238.1,0.1,-11.5,-29.8,-18.1,0,1758,0,204,
0.9800,-6.6,-17.1,-12.1,-12.5,-20.1,-18.8,-17.1,-8.9,84.5,-9.8,-88.4,-159.6,-37.9,-8.8,86.2,20.1,0.1,-0.1,-283.4,-240.5,0.1,-13.7,-28.5,-17.3,0,1764,0,205,
0.9833,-8.3,-17.0,-11.8,-10.5,-23.4,-17.6,-14.5,-8.3,48.9,-14.4,-90.2,-138.9,-40.6,-13.6,75.0,23.5,0.1,0.0,-289.8,-234.8,0.1,-13.5,-23.2,-13.8,0,1770,0,206,
0.9867,-10.2,-15.6,-10.1,-8.0,-26.4,-15.6,-11.7,-7.3,-1.7,-17.8,-90.9,-107.6,-42.4,-18.6,63.0,26.0,0.0,0.1,-289.4,-220.9,0.2,-11.3,-16.0,-8.8,0,1776,0,207,
0.9900,-12.1,-13.5,-7.3,-5.5,-27.4,-13.4,-9.3,-6.7,-47.6,-18.0,-87.2,-75.9,-42.0,-21.4,54.5,28.6,-0.1,0.1,-286.6,-203.2,0.2,-8.0,-9.7,-4.2,0,1782,0,208,
0.9933,-13.5,-11.8,-4.7,-3.4,-25.7,-11.5,-7.3,-6.3,-63.6,-15.4,-79.7,-55.4,-39.6,-21.5,51.8,31.7,-0.1,0.1,-291.3,-188.6,0.1,-5.0,-5.9,-1.1,0,1788,0,209,
0.9967,-14.0,-10.7,-3.1,-1.8,-21.7,-9.8,-5.6,-5.6,-41.1,-12.0,-71.8,-51.7,-36.8,-20.2,53.6,34.7,-0.2,0.1,-310.3,-182.1,0.0,-2.9,-4.6,0.2,0,1794,0,210,
1.0000,-13.7,-10.1,-2.3,-0.1,-17.1,-8.0,-4.2,-4.0,4.0,-9.5,-67.0,-61.0,-34.9,-19.5,56.2,35.8,-0.2,0.2,-341.0,-184.5,-0.1,-2.0,-4.5,0.2,0,1800,0,211,
1.0033,-12.7,-9.2,-1.3,1.9,-13.6,-6.2,-3.4,-1.6,43.0,-8.5,-65.9,-74.3,-34.1,-19.9,56.1,34.0,-0.2,0.2,-372.8,-191.8,-0.2,-2.1,-4.8,-0.7,0,1806,0,212,
1.0067,-11.0,-7.7,0.7,4.5,-12.0,-4.8,-3.1,1.1,56.4,-8.2,-66.4,-83.8,-33.5,-20.5,52.9,29.9,-0.2,0.1,-394.4,-198.9,-0.2,-3.0,-5.5,-2.2,0,1812,0,213,
1.0100,-8.6,-6.1,3.4,7.2,-11.6,-4.1,-3.6,3.5,46.6,-7.5,-65.7,-87.9,-32.0,-19.6,49.3,25.9,-0.1,0.0,-401.7,-202.0,-0.1,-4.0,-7.0,-4.1,0,1818,0,214,
1.0133,-5.5,-5.3,5.3,9.0,-11.4,-4.2,-4.3,5.3,31.9,-5.8,-63.2,-90.0,-29.5,-16.9,49.5,24.2,0.0,-0.1,-398.9,-201.1,0.0,-4.4,-9.5,-5.9,0,1824,0,215,
1.0167,-2.1,-6.1,5.0,9.2,-10.6,-5.0,-5.1,6.2,28.8,-3.4,-60.7,-94.1,-26.9,-13.7,55.5,24.8,0.2,-0.2,-393.6,-199.3,0.1,-3.6,-12.8,-7.1,0,1830,0,216,
1.0200,0.5,-8.2,1.6,7.0,-9.9,-6.5,-5.9,6.0,37.3,-1.4,-60.8,-101.7,-25.5,-11.9,66.0,26.3,0.2,-0.1,-391.2,-200.0,0.1,-1.8,-16.2,-7.8,0,1836,0,217,
1.0233,1.1,-11.2,-4.2,2.2,-11.1,-9.2,-7.0,4.1,42.0,-1.1,-64.8,-112.0,-26.3,-12.2,76.9,26.7,0.2,0.0,-392.7,-205.4,0.0,-0.5,-19.6,-9.1,0,1842,0,218,
1.0267,-0.7,-14.5,-10.9,-4.8,-15.7,-13.4,-8.9,0.3,26.6,-3.3,-71.4,-123.0,-29.3,-13.7,84.5,25.6,0.1,0.1,-396.7,-214.5,0.0,-1.9,-22.8,-12.1,0,1848,0,219,
1.0300,-4.2,-18.0,-16.5,-12.6,-23.6,-18.6,-11.5,-5.0,-11.9,-7.5,-77.9,-133.0,-33.5,-14.3,88.0,25.0,0.0,0.1,-402.0,-223.7,0.0,-6.8,-25.7,-17.0,0,1854,0,220,
1.0333,-7.4,-21.1,-19.5,-19.0,-32.2,-23.5,-14.1,-10.1,-60.8,-11.7,-81.6,-139.1,-37.2,-12.5,89.6,27.2,-0.1,0.0,-408.4,-228.6,0.0,-13.6,-27.1,-21.8,0,1860,0,221,
1.0367,-8.8,-23.0,-19.1,-21.6,-37.9,-25.9,-15.5,-12.9,-101.5,-13.2,-81.1,-137.5,-38.2,-8.3,92.7,33.0,-0.2,0.0,-414.3,-226.4,0.0,-18.8,-26.0,-23.4,0,1866,0,222,
1.0400,-7.6,-22.6,-15.7,-19.5,-37.9,-24.6,-14.9,-12.3,-123.8,-10.4,-76.9,-126.2,-35.5,-3.3,99.1,40.5,-0.1,0.0,-416.8,-217.7,0.0,-18.7,-22.4,-19.8,0,1872,0,223,
1.0433,-5.0,-19.8,-10.9,-13.9,-32.4,-20.1,-12.5,-8.9,-131.4,-4.0,-70.8,-108.5,-29.7,0.3,107.2,46.1,0.1,0.0,-413.6,-206.4,-0.1,-12.6,-17.6,-12.3,0,1878,0,224,
1.0467,-3.1,-15.9,-6.7,-7.5,-24.4,-14.8,-9.2,-4.5,-136.2,2.6,-65.1,-94.0,-23.4,1.5,113.0,47.4,0.2,0.0,-405.8,-197.6,-0.3,-3.3,-13.9,-4.6,0,1884,0,225,
1.0500,-3.6,-13.3,-5.3,-3.6,-17.6,-10.9,-6.4,-1.7,-147.1,5.6,-61.8,-93.2,-19.9,0.1,113.0,44.3,0.2,0.1,-398.6,-194.2,-0.3,4.2,-12.3,-0.9,0,1890,0,226,
1.0533,-6.4,-13.6,-6.9,-3.4,-14.4,-9.6,-4.8,-1.3,-162.8,3.1,-61.7,-109.2,-21.2,-2.7,106.4,39.3,0.2,0.1,-397.2,-195.4,-0.3,6.1,-11.9,-2.5,0,1896,0,227,
1.0567,-10.3,-16.6,-10.2,-6.0,-14.6,-10.3,-3.9,-2.7,-175.1,-3.5,-63.9,-133.4,-26.3,-5.7,95.6,35.3,0.0,0.0,-403.0,-197.0,-0.2,2.1,-11.2,-6.8,0,1902,0,228,
1.0600,-13.2,-19.9,-13.1,-8.9,-16.3,-11.3,-3.1,-4.4,-177.4,-10.2,-66.5,-149.8,-32.3,-8.3,85.2,33.5,-0.1,0.0,-411.8,-195.0,-0.1,-4.5,-9.4,-9.8,0,1908,0,229,
1.0633,-14.5,-21.3,-14.3,-10.5,-17.6,-11.6,-2.2,-5.1,-170.9,-14.0,-67.9,-146.9,-36.3,-10.8,78.4,32.7,-0.1,-0.1,-417.6,-188.8,0.0,-10.1,-7.5,-9.3,0,1914,0,230,
1.0667,-14.9,-20.4,-14.3,-11.0,-18.3,-11.6,-1.8,-5.1,-163.3,-14.4,-67.9,-127.1,-37.6,-14.0,76.1,30.9,0.0,0.0,-417.2,-182.0,0.0,-13.1,-7.7,-7.0,0,1920,0,231,
1.0700,-15.7,-18.8,-14.8,-11.9,-19.3,-12.6,-3.1,-5.4,-160.8,-14.1,-68.0,-106.0,-38.0,-18.8,76.3,27.1,0.1,0.0,-412.7,-179.6,0.0,-14.8,-11.3,-6.8,0,1926,0,232,
1.0733,-17.6,-18.7,-17.3,-14.8,-21.5,-15.2,-6.0,-6.8,-162.9,-15.5,-69.5,-100.4,-39.7,-24.9,76.6,22.5,0.1,0.1,-409.4,-184.2,0.0,-17.6,-16.8,-11.6,0,1932,0,233,
1.0767,-19.8,-20.7,-21.4,-18.9,-24.4,-18.9,-9.3,-8.7,-163.0,-19.1,-72.5,-115.5,-43.1,-30.4,75.9,19.4,0.1,0.1,-410.5,-193.5,0.1,-22.3,-21.3,-20.1,0,1938,0,234,
1.0800,-20.3,-23.3,-25.4,-22.3,-26.1,-21.5,-11.1,-9.9,-154.6,-22.3,-75.5,-140.4,-46.0,-32.7,75.1,19.4,0.0,0.1,-414.2,-201.8,0.2,-27.4,-22.2,-27.7,0,1944,0,235,
1.0833,-17.9,-23.9,-26.9,-22.6,-25.1,-21.4,-10.2,-9.1,-135.9,-22.1,-76.3,-156.0,-45.3,-29.8,76.3,22.3,-0.1,0.0,-415.5,-203.7,0.2,-29.8,-19.2,-29.4,0,1950,0,236,
1.0867,-13.1,-21.1,-25.3,-19.6,-21.7,-18.3,-7.1,-6.6,-110.8,-17.9,-74.0,-149.7,-40.1,-22.2,80.9,26.0,-0.2,0.0,-410.8,-198.0,0.1,-27.6,-14.6,-24.2,0,1956,0,237,
1.0900,-8.2,-16.4,-21.7,-15.1,-18.2,-13.9,-3.6,-4.1,-85.9,-11.8,-69.8,-124.3,-32.6,-12.5,88.8,28.1,-0.2,0.0,-400.5,-188.1,0.1,-21.8,-10.6,-15.0,0,1962,0,238,
1.0933,-5.4,-12.3,-18.0,-11.6,-16.7,-10.1,-1.6,-2.9,-67.3,-7.4,-65.6,-95.0,-26.5,-4.6,98.1,27.9,-0.1,0.1,-388.6,-179.4,0.0,-15.3,-7.8,-6.9,0,1968,0,239,
1.0967,-5.5,-10.7,-15.3,-10.3,-17.9,-7.8,-1.7,-3.4,-58.5,-6.1,-62.3,-77.8,-24.0,-0.9,107.1,26.2,-0.1,0.2,-378.8,-176.1,0.0,-10.8,-5.0,-3.4,0,1974,0,240,
1.1000,-7.1,-11.4,-12.9,-10.5,-19.9,-6.6,-2.5,-4.5,-59.7,-6.8,-59.6,-78.3,-24.2,-0.8,115.2,24.7,-0.1,0.2,-371.2,-178.5,0.1,-8.6,-0.8,-4.0,0,1980,0,241,
1.1033,-8.0,-12.1,-9.6,-9.9,-20.2,-5.1,-2.5,-4.2,-66.6,-6.7,-55.8,-89.3,-24.0,-1.6,122.7,25.0,-0.1,0.1,-363.4,-184.1,0.0,-6.7,5.1,-5.4,0,1986,0,242,
1.1067,-6.9,-10.5,-4.9,-7.2,-17.6,-2.5,-0.7,-1.8,-71.0,-4.1,-50.7,-98.7,-21.1,-0.5,130.7,27.8,-0.1,0.1,-353.3,-189.0,0.0,-2.5,11.5,-4.4,0,1992,0,243,
1.1100,-4.2,-6.6,0.4,-2.4,-13.6,0.4,2.3,1.9,-64.1,-0.4,-45.4,-98.7,-16.0,3.0,139.3,33.1,-0.1,0.1,-342.4,-190.3,-0.1,5.1,16.6,0.0,0,1998,0,244,
1.1133,-1.6,-2.1,4.6,2.6,-10.5,2.5,5.1,5.0,-42.2,1.3,-42.2,-91.1,-11.9,7.0,147.7,40.4,0.0,0.2,-335.5,-186.9,-0.1,14.3,19.8,6.0,0,2004,0,245,
1.1167,-0.7,0.8,6.4,6.0,-10.2,2.7,6.4,6.2,-10.0,-0.7,-42.1,-83.8,-11.5,8.9,155.1,48.7,0.1,0.3,-337.0,-179.9,-0.2,21.9,21.5,10.7,0,2010,0,246,
1.1200,-1.5,1.4,6.4,7.3,-11.6,1.5,5.9,5.5,22.6,-5.6,-44.5,-84.4,-14.8,7.7,161.0,56.1,0.1,0.3,-346.9,-172.2,-0.2,24.5,22.3,11.6,0,2016,0,247,
1.1233,-2.8,0.8,6.2,7.4,-12.3,-0.1,4.1,4.3,47.2,-9.8,-46.8,-94.0,-18.8,5.0,165.6,60.0,0.0,0.2,-360.1,-166.9,-0.1,20.6,21.3,8.3,0,2022,0,248,
1.1267,-2.9,1.0,7.3,7.7,-10.1,-0.8,1.5,4.2,63.0,-10.3,-47.1,-107.5,-19.7,3.5,169.7,57.8,0.0,0.1,-369.4,-166.4,-0.1,10.8,17.0,2.1,0,2028,0,249,
1.1300,-1.3,2.6,9.9,9.0,-5.5,-0.3,-1.3,5.7,75.4,-6.6,-45.1,-116.9,-16.2,4.5,173.6,48.9,0.0,0.0,-370.8,-170.2,0.0,-2.1,8.8,-4.7,0,2034,0,250,
1.1333,1.4,5.2,12.9,10.8,-1.1,0.5,-3.9,8.1,89.7,-0.7,-42.0,-116.5,-10.3,7.0,177.1,35.5,0.0,0.0,-365.2,-174.9,0.1,-14.5,-2.1,-9.9,0,2040,0,251,
1.1367,3.7,7.2,14.8,12.2,0.6,1.0,-5.7,10.3,103.9,4.2,-39.6,-106.2,-5.4,8.3,179.3,22.2,0.0,0.1,-358.0,-176.1,0.1,-22.8,-12.0,-12.2,0,2046,0,252,
1.1400,4.6,7.7,15.3,12.5,-0.8,1.0,-6.2,11.5,109.3,6.5,-38.4,-91.4,-4.1,6.7,179.2,13.7,0.1,0.2,-354.0,-170.9,0.1,-25.7,-17.5,-11.8,0,2052,0,253,
1.1433,3.8,6.7,15.1,11.8,-2.8,0.9,-5.1,11.9,97.6,6.6,-37.8,-81.0,-6.3,2.4,176.3,11.9,0.0,0.2,-353.2,-160.1,0.1,-23.9,-17.1,-10.0,0,2058,0,254,
1.1467,2.0,5.3,15.2,10.8,-2.2,1.2,-3.1,11.8,69.8,6.0,-36.8,-82.6,-10.0,-2.4,170.9,15.2,0.0,0.1,-350.7,-147.7,0.0,-20.4,-12.0,-8.4,0,2064,0,255,
1.1500,0.0,4.1,16.0,9.9,1.8,1.8,-1.0,11.2,38.2,5.6,-35.2,-97.9,-13.1,-5.6,163.7,18.7,-0.1,-0.1,-339.5,-138.5,-0.1,-18.5,-5.3,-8.5,0,2070,0,0,
1.1533,-1.6,3.2,16.6,9.2,7.2,1.9,0.0,9.6,19.4,5.3,-34.1,-120.9,-15.1,-6.6,156.0,18.1,-0.1,-0.1,-316.3,-135.1,-0.1,-19.8,0.4,-10.3,0,2076,0,1,
1.1567,-2.8,1.9,15.4,8.0,9.9,0.4,-0.4,6.2,21.9,4.2,-34.8,-139.9,-16.6,-6.7,148.7,11.8,0.0,-0.1,-283.2,-137.0,0.0,-23.2,4.3,-13.3,0,2082,0,2,
1.1600,-3.6,-0.3,11.9,5.7,7.3,-2.7,-2.0,0.9,40.1,2.1,-37.9,-144.4,-18.9,-7.5,142.2,1.9,0.0,0.0,-246.9,-141.7,0.1,-26.0,7.2,-16.4,0,2088,0,3,
1.1633,-4.1,-3.2,6.9,2.2,0.2,-6.7,-3.9,-5.0,58.9,-1.0,-42.9,-131.5,-22.2,-9.4,136.0,-7.2,0.1,0.0,-215.1,-146.5,0.1,-26.0,10.2,-19.0,0,2094,0,4,
1.1667,-4.2,-6.1,2.5,-1.5,-7.9,-10.0,-5.6,-9.4,65.0,-4.8,-48.1,-108.4,-25.9,-11.3,129.5,-11.8,0.1,0.1,-192.1,-149.7,0.0,-23.3,13.4,-21.1,0,2100,0,5,
1.1700,-3.6,-7.9,0.6,-4.0,-13.1,-11.5,-6.6,-10.5,57.2,-8.8,-51.6,-87.3,-28.8,-11.6,122.8,-10.8,0.1,0.1,-178.8,-150.7,-0.1,-19.9,16.2,-22.7,0,2106,0,6,
1.1733,-2.4,-8.2,1.9,-4.4,-13.6,-10.8,-6.8,-8.0,44.6,-12.3,-52.5,-77.9,-29.9,-9.2,117.1,-6.2,0.1,0.1,-173.8,-149.2,-0.2,-18.1,18.0,-23.3,0,2112,0,7,
1.1767,-0.7,-6.8,5.4,-2.5,-10.7,-8.6,-6.0,-3.4,37.9,-14.1,-50.7,-81.3,-28.7,-4.3,114.3,-1.4,0.1,0.1,-175.1,-145.0,-0.1,-18.1,18.8,-22.4,0,2118,0,8,
1.1800,1.3,-4.3,9.2,0.7,-7.1,-5.7,-4.2,1.2,39.8,-12.4,-46.9,-91.1,-25.5,1.7,116.5,1.8,0.1,0.1,-180.7,-138.9,0.0,-18.3,19.7,-19.4,0,2124,0,9,
1.1833,3.1,-1.4,12.0,4.0,-4.7,-2.9,-1.9,4.0,44.4,-6.4,-42.2,-98.7,-21.0,7.8,124.4,3.8,0.1,0.1,-187.7,-132.3,0.1,-16.6,21.5,-14.9,0,2130,0,10,
1.1867,4.4,1.4,13.4,6.4,-3.6,-0.6,0.1,4.9,44.1,2.6,-37.6,-100.2,-16.4,13.3,137.1,6.8,0.1,0.0,-192.3,-127.0,0.2,-12.7,24.8,-10.0,0,2136,0,11,
1.1900,5.4,3.6,14.3,7.6,-2.7,0.9,1.2,4.6,36.9,11.6,-33.6,-97.0,-12.8,17.9,151.9,12.9,0.1,0.0,-191.3,-124.4,0.2,-8.4,28.7,-6.1,0,2142,0,12,
1.1933,6.1,5.1,15.4,8.1,-1.0,1.9,1.4,4.4,27.3,17.1,-30.7,-93.9,-11.2,21.4,165.1,22.3,0.0,0.0,-184.6,-124.6,0.1,-5.9,32.0,-3.7,0,2148,0,13,
1.1967,7.2,6.1,16.8,8.4,1.3,2.6,1.1,5.1,19.5,17.4,-29.2,-93.8,-11.4,23.5,173.6,32.7,0.0,-0.1,-176.5,-126.2,0.0,-5.9,33.7,-2.4,0,2154,0,14,
1.2000,8.8,6.6,17.9,8.8,3.5,3.5,1.0,6.8,12.8,13.5,-29.0,-95.8,-12.5,23.6,175.9,41.1,-0.1,-0.1,-172.6,-127.6,-0.1,-6.8,33.2,-1.2,0,2160,0,15,
1.2033,10.6,6.9,18.2,9.2,4.8,5.3,1.8,8.9,2.4,8.5,-29.9,-97.1,-13.3,21.7,173.1,45.7,-0.1,-0.1,-176.7,-128.0,-0.2,-6.0,30.8,1.1,0,2166,0,16,
1.2067,12.0,7.1,17.5,9.3,5.4,8.0,3.1,10.4,-14.7,5.2,-31.0,-95.2,-13.3,18.4,168.8,46.7,0.0,-0.1,-187.4,-127.5,-0.2,-2.5,27.0,4.6,0,2172,0,17,
1.2100,12.2,6.8,16.5,8.7,5.4,10.9,4.2,10.9,-34.7,4.7,-31.6,-90.2,-13.0,14.5,167.0,45.7,0.0,-0.1,-199.0,-127.3,-0.1,1.9,22.1,8.2,0,2178,0,18,
1.2133,11.0,5.8,15.6,7.3,4.8,12.5,4.1,9.8,-49.0,6.2,-31.2,-84.7,-13.6,11.1,169.9,44.6,0.1,0.0,-206.1,-128.9,0.0,4.1,16.5,10.5,0,2184,0,19,
1.2167,8.2,3.7,14.4,5.0,3.3,11.6,2.3,7.3,-50.8,7.4,-30.8,-82.3,-16.0,8.6,176.3,44.2,0.0,0.0,-207.0,-132.9,0.1,2.2,10.6,10.1,0,2190,0,20,
1.2200,4.7,0.4,12.4,2.1,0.6,7.9,-0.9,3.5,-41.0,6.7,-31.4,-86.0,-19.9,6.8,181.7,44.1,0.0,0.0,-204.0,-137.7,0.1,-2.8,4.9,6.9,0,2196,0,21,
1.2233,1.2,-3.6,9.1,-0.9,-2.5,2.6,-4.7,-0.7,-27.5,3.5,-34.0,-96.7,-24.3,5.3,181.8,43.5,0.0,0.0,-201.4,-140.8,0.0,-7.2,-0.1,2.0,0,2202,0,22,
1.2267,-1.5,-7.4,5.4,-2.9,-4.7,-2.6,-7.9,-3.9,-19.1,-1.4,-37.9,-111.3,-27.6,4.0,174.8,42.1,0.0,-0.1,-201.4,-139.2,-0.1,-7.9,-4.2,-2.5,0,2208,0,23,
1.2300,-2.7,-9.6,2.7,-3.1,-5.1,-5.6,-9.4,-4.9,-19.9,-6.0,-41.4,-123.3,-29.2,3.0,163.6,40.1,0.1,-0.1,-203.3,-132.6,-0.1,-4.0,-7.4,-4.9,0,2214,0,24,
1.2333,-2.3,-9.5,2.1,-1.3,-3.5,-5.7,-9.3,-3.4,-27.2,-8.6,-42.5,-125.6,-29.1,2.8,153.7,37.9,0.1,0.0,-205.0,-124.3,-0.1,2.2,-10.0,-4.3,0,2220,0,25,
1.2367,-0.6,-7.0,3.8,2.0,-0.8,-3.3,-8.1,-0.4,-36.4,-8.2,-40.5,-114.9,-28.0,3.8,149.7,36.2,0.1,0.0,-205.5,-119.8,-0.1,7.2,-12.1,-1.3,0,2226,0,26,
1.2400,1.6,-3.4,6.5,5.4,2.2,0.1,-6.5,2.6,-45.2,-4.9,-36.2,-95.9,-26.4,5.8,151.9,35.6,0.0,0.0,-205.6,-122.9,0.0,9.0,-13.6,2.9,0,2232,0,27,
1.2433,3.5,-0.2,8.8,8.0,5.3,3.1,-5.2,4.2,-55.0,-0.1,-31.3,-78.9,-24.6,8.2,156.8,36.5,0.0,-0.1,-206.9,-132.1,-0.1,8.0,-13.9,6.9,0,2238,0,28,
1.2467,4.5,1.7,9.9,9.5,8.6,4.8,-4.4,4.0,-66.9,4.6,-26.9,-73.8,-22.5,10.3,159.7,38.6,0.0,-0.1,-209.6,-141.0,0.0,6.4,-12.6,9.8,0,2244,0,29,
1.2500,4.4,2.5,10.1,10.3,11.6,4.8,-3.9,2.8,-77.8,8.0,-23.3,-82.2,-19.9,11.7,158.3,41.2,0.1,-0.1,-212.9,-141.8,0.0,6.3,-9.6,10.8,0,2250,0,30,
1.2533,3.6,2.9,10.4,10.9,13.1,3.7,-3.6,1.6,-81.4,9.8,-20.1,-96.3,-16.9,12.4,154.3,43.0,0.1,-0.1,-215.8,-131.7,0.1,8.0,-5.9,10.1,0,2256,0,31,
1.2567,2.4,3.4,11.2,11.4,11.6,2.0,-3.7,1.0,-73.8,10.5,-17.6,-105.1,-14.0,12.8,151.2,43.2,0.0,-0.1,-218.6,-114.9,0.2,10.4,-3.1,8.1,0,2262,0,32,
1.2600,1.3,4.0,11.9,11.5,7.7,0.3,-4.5,0.8,-59.6,11.2,-16.2,-103.6,-11.7,13.1,151.3,42.0,-0.1,-0.2,-222.1,-100.1,0.2,12.0,-2.9,5.8,0,2268,0,33,
1.2633,0.5,4.0,12.0,11.0,4.2,-0.9,-5.8,0.5,-50.0,12.4,-16.7,-98.1,-10.2,13.2,154.0,40.5,-0.2,-0.3,-226.6,-94.4,0.1,11.9,-6.2,4.3,0,2274,0,34,
1.2667,0.1,3.3,11.0,10.6,4.6,-1.4,-7.0,-0.1,-55.3,13.9,-18.7,-100.5,-9.3,13.2,156.4,40.1,-0.2,-0.3,-231.0,-98.9,0.0,10.7,-12.2,4.2,0,2280,0,35,
1.2700,0.4,2.2,9.3,10.8,10.3,-1.3,-7.3,-0.4,-75.8,14.8,-21.4,-118.2,-8.9,13.0,156.0,41.2,0.0,-0.3,-234.4,-108.9,0.0,8.9,-19.5,5.0,0,2286,0,36,
1.2733,1.2,1.2,7.2,11.5,18.6,-1.1,-6.4,0.0,-101.7,13.5,-24.6,-145.7,-9.5,12.5,152.4,43.4,0.1,-0.1,-237.4,-119.0,0.0,6.7,-25.7,5.6,0,2292,0,37,
1.2767,2.1,0.5,4.9,11.5,24.0,-1.3,-5.0,1.0,-121.9,9.1,-29.1,-167.2,-11.7,11.5,147.9,45.3,0.1,0.0,-242.8,-126.8,0.1,3.6,-29.4,4.7,0,2298,0,38,
1.2800,2.1,-0.7,2.0,9.6,21.8,-2.2,-4.4,1.8,-132.9,1.7,-36.0,-167.8,-15.8,9.3,144.9,46.1,0.0,0.1,-253.0,-132.9,0.2,-1.2,-30.3,2.1,0,2304,0,39,
1.2833,0.7,-3.0,-1.4,5.3,11.4,-3.7,-5.3,1.7,-140.0,-7.0,-45.2,-144.0,-21.0,5.8,144.6,45.6,-0.1,0.0,-266.8,-137.9,0.2,-7.1,-29.0,-1.0,0,2310,0,40,
1.2867,-1.8,-6.2,-4.1,0.1,-2.7,-5.2,-7.7,0.9,-149.1,-14.3,-53.4,-106.0,-25.3,1.1,145.6,43.9,-0.2,-0.1,-279.2,-139.3,0.1,-12.8,-27.2,-3.4,0,2316,0,41,
1.2900,-4.3,-8.4,-4.6,-3.4,-14.4,-6.5,-10.3,0.0,-157.4,-17.4,-56.1,-69.5,-26.6,-3.0,146.1,40.6,-0.2,-0.2,-283.8,-132.7,0.1,-16.0,-26.2,-4.0,0,2322,0,42,
1.2933,-5.4,-7.8,-1.9,-3.6,-19.5,-7.3,-11.7,0.0,-154.8,-15.0,-50.0,-45.2,-24.1,-4.5,144.6,35.4,-0.2,-0.2,-278.3,-116.3,0.0,-15.2,-26.7,-3.2,0,2328,0,43,
1.2967,-4.2,-3.9,3.2,-0.6,-17.8,-7.3,-11.2,0.9,-135.1,-8.0,-35.8,-34.1,-19.0,-2.0,141.9,28.1,-0.1,-0.1,-266.2,-94.6,0.0,-10.4,-28.5,-2.0,0,2334,0,44,
1.3000,-1.0,1.9,8.4,3.4,-12.0,-6.6,-9.5,1.8,-107.0,0.4,-18.6,-32.3,-13.6,4.1,139.8,20.4,-0.1,0.1,-255.1,-75.8,0.0,-3.3,-30.5,-1.0,0,2340,0,45,
1.3033,2.7,6.7,11.5,6.2,-4.7,-4.8,-7.5,1.6,-91.8,6.8,-4.5,-37.1,-10.4,11.4,139.4,14.5,-0.2,0.1,-251.6,-66.8,0.0,3.5,-31.9,0.3,0,2346,0,46,
1.3067,5.2,8.3,11.9,7.1,3.3,-2.2,-6.2,0.4,-106.8,8.9,2.9,-50.1,-10.2,16.7,140.1,12.5,-0.2,0.1,-257.2,-67.4,0.0,8.0,-32.2,2.3,0,2352,0,47,
1.3100,5.9,6.4,10.4,7.0,12.4,0.7,-5.6,-0.9,-148.7,6.7,4.5,-71.9,-12.0,17.5,139.7,14.2,-0.1,0.1,-267.3,-70.9,0.0,9.5,-31.3,5.2,0,2358,0,48,
1.3133,5.0,3.0,9.0,7.4,21.7,3.1,-5.1,-0.9,-190.7,2.2,4.0,-96.2,-14.2,13.6,135.9,17.3,0.0,0.1,-276.1,-70.1,0.0,8.5,-29.6,7.9,0,2364,0,49,
1.3167,3.2,0.2,8.5,8.9,28.3,4.1,-4.1,0.6,-200.1,-2.4,5.0,-110.1,-15.7,7.2,128.4,19.0,0.1,0.2,-280.4,-63.1,0.0,6.6,-27.3,9.2,0,2370,0,50,
1.3200,1.5,-1.3,8.8,10.4,28.9,3.4,-2.6,2.6,-161.5,-5.2,8.3,-101.7,-16.5,1.4,119.0,17.8,0.1,0.2,-281.5,-54.8,0.0,5.0,-24.5,8.7,0,2376,0,51,
1.3233,0.2,-2.3,8.5,10.6,22.5,1.5,-1.1,3.2,-89.3,-5.8,11.7,-70.0,-17.2,-1.7,111.1,14.8,0.0,0.2,-283.0,-51.9,0.0,4.0,-21.3,7.2,0,2382,0,52,
1.3267,-1.0,-3.8,7.0,8.8,11.9,-0.6,-0.3,1.8,-17.6,-4.7,12.4,-27.5,-18.2,-1.7,106.8,11.7,0.0,0.1,-287.2,-56.3,0.0,3.0,-18.2,6.5,0,2388,0,53,
1.3300,-2.2,-6.3,4.7,5.9,1.9,-2.3,-0.5,-0.9,23.0,-3.6,9.6,7.4,-19.3,-0.1,106.1,9.7,-0.1,0.1,-293.1,-63.0,0.0,1.5,-15.9,7.2,0,2394,0,54,
1.3333,-3.6,-8.8,2.6,3.2,-3.9,-3.8,-1.8,-3.0,24.3,-3.8,4.8,22.5,-20.3,0.7,106.7,8.2,-0.1,0.0,-297.4,-63.2,0.0,-1.0,-15.2,8.3,0,2400,0,55,
1.3367,-5.1,-10.3,1.6,1.5,-5.2,-5.6,-3.7,-3.1,0.2,-6.4,0.3,18.7,-21.4,-0.2,105.7,5.3,-0.1,0.0,-297.8,-52.5,-0.1,-3.8,-16.4,7.9,0,2406,0,56,
1.3400,-6.4,-10.6,1.7,0.6,-4.8,-8.1,-5.9,-1.5,-27.4,-11.1,-2.4,7.4,-22.8,-2.5,101.6,-0.4,0.0,0.0,-295.1,-34.0,-0.1,-6.3,-18.8,4.6,0,2412,0,57,
1.3433,-7.2,-10.3,2.2,0.2,-5.4,-10.9,-7.6,0.5,-44.1,-15.8,-3.4,0.0,-24.7,-4.7,95.1,-8.6,0.1,0.0,-292.3,-17.2,-0.1,-7.3,-21.4,-0.5,0,2418,0,58,
1.3467,-7.0,-10.0,2.9,0.2,-7.2,-12.4,-8.5,1.6,-47.9,-17.7,-3.7,-0.6,-25.8,-5.6,88.5,-17.7,0.1,0.0,-292.5,-10.8,0.0,-6.2,-23.0,-4.5,0,2424,0,59,
1.3500,-5.3,-9.1,4.1,1.4,-7.9,-11.0,-8.0,2.0,-42.1,-15.3,-3.9,0.0,-24.5,-4.5,83.9,-25.7,0.0,0.0,-296.4,-17.1,0.0,-2.9,-22.4,-4.4,0,2430,0,60,
1.3533,-1.8,-6.2,6.7,4.7,-5.4,-6.2,-6.2,3.4,-29.2,-8.9,-3.4,-5.5,-19.5,-1.9,82.1,-31.8,-0.1,0.1,-302.2,-30.6,0.0,2.0,-19.6,0.6,0,2436,0,61,
1.3567,2.9,-0.6,10.6,9.7,0.3,0.6,-3.7,7.0,-11.6,-1.7,-1.6,-18.6,-11.6,1.1,82.3,-36.1,-0.1,0.1,-306.6,-42.4,0.0,7.0,-15.1,8.2,0,2442,0,62,
1.3600,7.5,6.4,14.7,14.5,6.2,6.7,-1.3,12.6,3.3,2.4,1.0,-34.4,-3.3,4.1,83.2,-39.0,-0.1,0.1,-307.5,-46.4,-0.1,10.3,-10.5,14.6,0,2448,0,63,
1.3633,10.5,11.9,16.9,17.3,9.2,9.8,0.2,17.8,4.2,1.3,2.7,-46.2,2.0,6.7,83.8,-40.9,0.0,0.0,-305.1,-42.9,-0.1,10.5,-7.4,16.9,0,2454,0,64,
1.3667,10.9,12.8,15.6,16.7,8.0,8.7,0.3,19.8,-14.3,-4.5,1.8,-52.0,2.5,8.5,84.2,-41.4,0.0,-0.2,-301.3,-36.9,-0.1,7.1,-7.1,14.2,0,2460,0,65,
1.3700,8.9,8.3,10.8,13.4,4.1,4.4,-0.8,16.9,-41.7,-12.0,-2.2,-55.7,-1.2,8.8,85.0,-40.9,0.0,-0.3,-298.7,-34.5,0.0,1.3,-10.1,8.5,0,2466,0,66,
1.3733,5.6,0.8,4.7,9.2,0.4,-0.6,-2.6,10.4,-56.2,-17.7,-7.7,-62.7,-6.5,6.6,86.5,-39.8,-0.1,-0.4,-299.3,-38.2,0.0,-4.9,-15.1,2.7,0,2472,0,67,
1.3767,2.7,-5.9,0.2,6.1,-1.2,-3.9,-4.3,3.6,-42.4,-19.9,-12.2,-73.9,-10.2,1.8,88.7,-39.2,-0.1,-0.3,-303.6,-46.1,0.0,-9.3,-20.1,-1.2,0,2478,0,68,
1.3800,1.1,-8.5,-0.7,5.3,-0.5,-4.5,-5.0,0.1,-8.3,-18.6,-13.6,-84.8,-10.9,-4.3,90.6,-39.5,-0.1,-0.1,-310.2,-53.1,0.0,-10.5,-22.8,-2.3,0,2484,0,69,
1.3833,1.1,-6.4,2.3,6.8,1.4,-2.5,-4.2,1.5,16.5,-15.4,-11.7,-89.0,-8.7,-9.5,91.5,-40.4,0.0,0.2,-316.3,-54.6,-0.1,-8.4,-22.2,-1.0,0,2490,0,70,
1.3867,1.9,-1.4,7.4,10.0,3.5,0.8,-2.1,6.4,4.1,-12.0,-8.3,-84.7,-5.5,-11.8,90.8,-40.8,0.0,0.3,-319.2,-49.0,-0.1,-4.1,-18.6,1.7,0,2496,0,71,
1.3900,2.4,3.5,11.8,13.4,6.0,4.3,0.7,11.7,-46.2,-9.8,-6.1,-76.5,-3.0,-10.9,88.8,-40.0,0.1,0.3,-318.0,-39.0,0.0,0.2,-13.3,5.0,0,2502,0,72,
1.3933,1.8,6.0,13.4,15.9,8.8,6.8,2.9,14.5,-103.2,-9.3,-6.5,-72.5,-2.0,-8.4,86.4,-38.3,0.1,0.2,-314.2,-30.5,0.1,2.5,-8.3,7.8,0,2508,0,73,
1.3967,-0.1,5.6,11.3,16.0,11.2,7.6,3.4,13.5,-126.7,-10.7,-9.7,-78.2,-2.3,-6.8,84.9,-36.5,0.0,0.0,-311.0,-29.1,0.1,1.5,-5.2,8.7,0,2514,0,74,
1.4000,-2.9,2.8,6.3,13.1,11.3,6.3,1.8,9.6,-99.7,-13.4,-14.6,-91.8,-3.3,-7.7,85.4,-35.2,0.0,-0.2,-310.9,-37.5,0.1,-2.6,-5.1,6.9,0,2520,0,75,
1.4033,-5.6,-1.4,0.0,7.3,7.7,3.1,-1.2,4.7,-42.2,-16.2,-19.6,-105.6,-4.7,-10.5,88.0,-33.8,0.0,-0.2,-313.9,-53.2,0.1,-8.0,-8.0,2.9,0,2526,0,76,
1.4067,-7.5,-5.6,-5.7,0.4,0.7,-1.0,-4.0,0.8,4.6,-17.6,-23.2,-110.9,-6.0,-13.4,92.3,-31.1,0.0,-0.2,-317.2,-69.2,0.1,-12.0,-12.5,-1.5,0,2532,0,77,
1.4100,-8.2,-8.6,-9.3,-5.2,-7.0,-4.4,-4.9,-1.2,11.2,-16.2,-24.8,-104.2,-6.9,-14.2,96.7,-25.6,-0.1,-0.1,-317.1,-77.5,0.1,-12.3,-15.9,-3.5,0,2538,0,78,
1.4133,-7.7,-9.5,-10.0,-7.4,-12.0,-5.4,-3.3,-1.5,-17.9,-12.0,-24.1,-88.2,-6.5,-12.4,99.5,-17.7,-0.1,-0.1,-312.0,-73.4,0.1,-8.4,-15.8,-1.6,0,2544,0,79,
1.4167,-6.4,-7.7,-7.6,-5.7,-12.3,-3.6,0.2,-0.8,-51.3,-5.9,-21.0,-69.5,-4.0,-9.0,99.5,-9.0,-0.1,-0.1,-303.8,-58.4,0.1,-1.7,-10.9,4.0,0,2550,0,80,
1.4200,-5.0,-3.9,-3.5,-1.4,-8.8,-0.2,4.0,-0.1,-59.2,0.5,-16.6,-53.8,0.8,-5.6,96.8,-2.2,-0.1,-0.1,-296.0,-38.8,0.1,4.6,-3.1,10.7,0,2556,0,81,
1.4233,-4.0,0.4,0.7,3.0,-4.5,3.0,6.5,0.0,-37.8,5.8,-12.2,-43.6,6.6,-2.8,93.2,1.2,0.0,0.0,-291.3,-22.8,0.1,8.0,4.0,15.3,0,2562,0,82,
1.4267,-3.4,3.8,3.1,5.5,-1.8,4.3,7.0,-0.6,-10.6,9.5,-9.4,-38.1,11.6,-0.2,90.7,1.2,0.1,0.2,-289.1,-15.3,0.1,8.0,6.8,16.3,0,2568,0,83,
1.4300,-3.1,5.3,2.9,5.8,-1.5,3.9,6.2,-1.7,-5.4,11.8,-9.3,-36.0,14.3,3.2,90.9,-0.7,0.1,0.3,-287.0,-16.4,0.0,6.2,5.0,14.3,0,2574,0,84,
1.4333,-2.7,5.3,0.7,4.7,-2.2,2.8,5.4,-2.9,-29.2,13.2,-11.3,-37.3,14.6,7.8,93.7,-2.4,0.0,0.4,-283.2,-22.3,0.0,4.9,1.3,11.5,0,2580,0,85,
1.4367,-2.0,4.8,-1.7,3.7,-2.0,2.2,5.4,-3.6,-62.9,14.4,-13.7,-42.3,13.8,12.8,97.6,-3.0,0.0,0.3,-278.8,-28.1,0.0,5.8,-0.4,9.7,0,2586,0,86,
1.4400,-1.0,4.8,-3.0,3.6,-0.5,2.2,6.1,-3.5,-78.5,15.9,-15.0,-50.7,13.8,17.0,100.9,-2.9,0.0,0.1,-276.6,-31.0,0.0,8.6,1.4,9.2,0,2592,0,87,
1.4433,0.3,5.6,-2.5,4.0,1.5,2.1,6.5,-2.4,-63.5,17.9,-14.4,-59.9,15.4,19.4,102.6,-3.3,0.1,0.0,-278.5,-30.9,0.0,11.6,4.9,8.7,0,2598,0,88,
1.4467,1.6,6.7,-1.0,4.1,2.7,1.2,5.6,-0.6,-29.7,20.1,-12.4,-66.5,18.0,20.2,103.6,-5.0,0.1,0.0,-283.0,-29.7,0.0,12.9,6.0,7.4,0,2604,0,89,
1.4500,2.7,7.4,0.5,3.7,2.7,-0.1,3.7,1.6,-1.0,21.8,-10.5,-68.6,20.1,20.2,105.6,-8.2,0.1,0.1,-285.6,-29.3,0.0,12.1,2.5,5.6,0,2610,0,90,
1.4533,3.3,7.7,1.5,3.5,2.9,0.0,2.0,3.8,7.9,22.6,-9.6,-67.6,20.9,20.1,109.3,-12.2,0.1,0.1,-282.1,-29.5,0.0,10.3,-4.2,4.9,0,2616,0,91,
1.4567,3.5,8.0,2.0,4.6,5.2,3.2,2.2,5.8,1.1,22.3,-9.3,-66.7,20.8,20.3,114.2,-15.8,0.0,0.1,-272.6,-28.5,-0.1,9.7,-9.6,7.0,0,2622,0,92,
1.4600,3.2,8.7,2.8,7.6,10.1,9.3,4.7,7.6,-6.8,21.7,-9.1,-68.2,21.1,20.5,118.4,-18.2,0.0,0.0,-261.2,-24.1,-0.1,11.8,-10.2,11.6,0,2628,0,93,
1.4633,2.8,9.9,4.2,11.5,15.9,16.3,8.8,9.2,-7.9,21.5,-8.2,-71.8,22.8,20.4,120.2,-18.8,0.0,-0.1,-253.3,-15.9,-0.1,16.1,-5.9,16.8,0,2634,0,94,
1.4667,2.6,11.2,6.0,14.8,19.8,21.1,12.3,10.3,-7.8,22.0,-6.9,-74.3,25.2,19.9,119.6,-17.8,0.1,-0.1,-251.6,-6.7,-0.1,20.9,-0.5,19.6,0,2640,0,95,
1.4700,2.6,11.8,7.3,15.6,19.7,21.6,13.5,10.8,-17.1,22.6,-6.2,-73.4,26.6,18.7,118.1,-16.0,0.1,0.0,-254.4,-1.2,0.0,23.4,1.9,18.5,0,2646,0,96,
1.4733,2.5,11.3,7.7,13.7,15.7,18.1,11.9,10.5,-37.5,22.0,-6.8,-70.1,25.1,16.5,117.5,-15.0,0.1,0.1,-257.2,-3.5,0.0,22.1,0.0,13.9,0,2652,0,97,
1.4767,1.8,9.3,6.8,10.2,9.8,12.8,8.6,9.7,-57.4,19.4,-8.9,-68.8,20.6,12.7,118.4,-15.5,0.0,0.2,-256.8,-13.7,0.0,17.2,-4.4,8.1,0,2658,0,98,
1.4800,0.2,6.1,5.0,6.7,4.8,8.3,5.3,8.5,-62.0,15.2,-11.8,-73.9,14.4,7.4,119.2,-17.5,0.0,0.1,-253.1,-26.9,-0.1,10.6,-7.6,3.3,0,2664,0,99,
1.4833,-2.1,2.3,2.6,4.2,1.9,5.4,3.2,7.2,-48.3,10.9,-15.1,-85.5,8.7,1.9,118.1,-19.5,-0.1,0.0,-248.7,-36.4,-0.1,4.5,-8.3,0.3,0,2670,0,100,
1.4867,-4.2,-1.1,-0.3,2.5,0.5,3.6,2.2,5.4,-29.6,8.1,-18.4,-98.5,5.2,-2.1,114.1,-19.6,0.0,-0.2,-246.3,-37.4,-0.1,0.1,-7.7,-1.4,0,2676,0,101,
1.4900,-5.3,-3.3,-3.3,0.7,-1.2,1.4,1.3,3.0,-24.5,7.2,-21.8,-105.3,4.0,-2.9,108.6,-17.1,0.0,-0.2,-246.4,-30.6,-0.1,-2.2,-8.3,-2.9,0,2682,0,102,
1.4933,-5.0,-3.8,-5.8,-1.7,-4.2,-1.8,-0.3,0.1,-39.4,7.4,-24.8,-101.5,4.0,-0.5,104.0,-12.8,0.1,-0.1,-247.6,-22.2,0.0,-2.6,-11.1,-4.6,0,2688,0,103,
1.4967,-3.9,-2.6,-7.0,-4.2,-8.0,-5.1,-2.4,-2.4,-61.3,7.0,-26.6,-89.3,3.9,3.0,101.4,-9.3,0.0,0.1,-248.0,-19.0,0.0,-1.8,-14.5,-5.6,0,2694,0,104,
1.5000,-3.2,-0.7,-6.4,-5.3,-10.6,-7.0,-4.1,-3.5,-66.4,5.1,-26.7,-76.0,3.0,4.6,99.8,-8.7,-0.1,0.2,-246.9,-24.1,0.1,0.1,-15.7,-4.8,0,2700,0,105,
1.5033,-4.0,0.8,-4.8,-4.3,-10.6,-6.4,-4.3,-2.6,-39.3,1.7,-25.4,-70.2,1.3,2.2,96.9,-11.3,-0.2,0.2,-245.2,-34.6,0.1,2.3,-12.9,-2.6,0,2706,0,106,
1.5067,-6.5,0.7,-3.6,-1.6,-7.6,-4.1,-3.1,-0.3,14.3,-2.0,-24.5,-76.6,-0.9,-4.0,90.7,-15.4,-0.2,0.1,-244.7,-43.9,0.0,3.3,-7.6,-0.4,0,2712,0,107,
1.5100,-9.6,-1.1,-4.3,1.1,-3.1,-1.6,-1.7,2.3,70.8,-4.9,-25.5,-93.5,-3.1,-11.5,82.4,-18.3,-0.2,0.0,-246.0,-47.0,0.0,1.5,-3.1,-0.3,0,2718,0,108,
1.5133,-11.8,-3.4,-6.5,2.4,0.8,-0.6,-1.1,3.8,105.9,-6.2,-28.7,-113.5,-4.6,-16.6,75.3,-18.6,-0.1,0.0,-248.9,-43.8,-0.1,-3.7,-2.0,-3.4,0,2724,0,109,
1.5167,-12.0,-4.6,-8.6,2.3,2.4,-1.2,-2.0,4.0,110.3,-5.9,-32.0,-126.6,-4.9,-17.1,73.2,-16.6,-0.1,0.1,-252.0,-38.2,-0.1,-10.4,-4.4,-8.2,0,2730,0,110,
1.5200,-9.9,-3.3,-8.1,2.0,1.5,-2.2,-3.5,3.9,93.7,-4.1,-32.4,-125.0,-3.2,-13.3,77.8,-13.6,-0.1,0.1,-254.0,-34.9,0.0,-15.4,-7.9,-12.2,0,2736,0,111,
1.5233,-6.5,0.6,-3.9,2.9,-1.0,-2.0,-4.3,4.7,74.6,-1.4,-28.3,-106.9,0.2,-7.8,87.1,-10.9,-0.1,0.0,-253.9,-34.9,0.0,-15.4,-10.1,-12.9,0,2742,0,112,
1.5267,-3.3,5.8,2.3,5.3,-3.6,-0.4,-3.8,7.1,65.0,1.8,-21.0,-79.0,4.4,-3.3,97.5,-8.4,-0.1,-0.1,-251.8,-35.6,0.0,-10.2,-10.1,-10.2,0,2748,0,113,
1.5300,-1.5,10.1,7.6,7.9,-5.2,1.7,-2.4,10.3,65.0,4.5,-14.1,-54.2,7.9,-1.5,105.9,-5.5,0.0,-0.1,-248.7,-33.5,-0.1,-2.6,-8.9,-6.3,0,2754,0,114,
1.5333,-1.4,11.9,9.3,9.0,-4.9,2.9,-1.2,12.4,67.6,5.9,-11.2,-45.3,9.6,-1.7,111.7,-2.0,0.1,-0.1,-246.3,-27.4,-0.1,2.9,-7.9,-4.1,0,2760,0,115,
1.5367,-2.4,10.9,7.1,8.0,-3.0,2.3,-1.2,12.0,68.4,5.8,-13.4,-56.2,9.4,-2.3,116.6,1.4,0.2,0.0,-245.9,-19.6,0.0,3.7,-7.3,-4.6,0,2766,0,116,
1.5400,-3.8,8.0,3.2,6.0,-0.2,0.8,-2.6,8.9,69.0,4.5,-18.3,-79.4,8.0,-2.3,122.1,3.8,0.3,0.0,-247.7,-13.9,0.1,0.8,-5.8,-6.6,0,2772,0,117,
1.5433,-5.2,4.6,0.5,4.7,2.2,-0.5,-4.6,4.0,72.1,3.3,-22.2,-99.6,6.3,-2.0,128.1,4.7,0.3,0.1,-250.7,-12.0,0.1,-2.1,-2.2,-7.6,0,2778,0,118,
1.5467,-6.9,1.5,0.2,5.0,3.3,-0.3,-6.3,-0.7,74.3,3.1,-23.1,-105.3,4.3,-2.5,133.2,4.7,0.2,0.0,-253.5,-12.8,0.1,-1.8,3.1,-6.3,0,2784,0,119,
1.5500,-8.9,-1.1,0.9,6.1,2.9,0.9,-7.2,-4.1,65.7,3.8,-21.7,-97.3,1.8,-4.7,136.1,4.8,0.0,0.0,-255.9,-13.7,0.1,1.7,7.9,-4.0,0,2790,0,120,
1.5533,-11.1,-3.5,0.5,6.1,1.6,1.7,-7.4,-5.7,38.9,4.5,-20.6,-87.5,-1.2,-8.1,137.2,5.4,-0.1,-0.1,-258.7,-13.4,0.0,5.3,9.8,-2.9,0,2796,0,121,
1.5567,-12.5,-5.4,-2.2,4.2,0.5,1.2,-7.6,-6.0,-1.6,3.9,-22.0,-89.4,-4.1,-11.0,138.3,5.9,-0.1,-0.1,-262.5,-12.9,-0.1,5.0,8.2,-4.8,0,2802,0,122,
1.5600,-12.3,-6.0,-6.0,0.9,0.5,-0.8,-8.0,-5.4,-38.7,1.6,-25.5,-105.1,-5.3,-11.8,141.3,5.4,-0.1,-0.1,-266.6,-14.3,0.0,-0.1,4.8,-8.8,0,2808,0,123,
1.5633,-10.2,-4.8,-8.2,-1.6,1.6,-3.2,-8.6,-4.4,-52.9,-1.9,-28.7,-123.7,-4.5,-10.5,145.9,3.7,0.0,0.0,-269.3,-17.7,0.1,-7.5,2.3,-12.0,0,2814,0,124,
1.5667,-7.4,-2.4,-7.4,-1.9,2.9,-4.5,-8.9,-3.1,-35.6,-5.3,-29.3,-129.7,-2.5,-8.5,149.9,2.3,0.0,0.0,-268.5,-20.7,0.1,-12.6,2.2,-12.3,0,2820,0,125,
1.5700,-5.6,-0.4,-4.5,0.0,3.3,-4.4,-8.9,-1.8,4.0,-7.5,-27.2,-117.0,-1.4,-8.1,151.0,2.7,-0.1,0.0,-264.9,-20.1,0.1,-12.6,3.4,-9.7,0,2826,0,126,
1.5733,-5.9,-0.5,-2.0,2.3,2.7,-3.3,-8.8,-0.8,43.3,-8.2,-24.4,-95.0,-2.8,-10.0,149.0,5.4,-0.2,0.0,-261.0,-14.5,0.1,-8.4,3.5,-6.7,0,2832,0,127,
1.5767,-8.0,-3.0,-2.0,3.6,1.8,-2.5,-8.8,-0.3,60.4,-7.8,-23.3,-81.7,-6.5,-13.2,146.1,9.5,-0.2,0.1,-260.3,-6.4,0.0,-3.7,1.0,-5.7,0,2838,0,128,
1.5800,-10.1,-6.2,-4.2,3.4,1.5,-2.5,-9.0,0.1,46.7,-7.3,-24.8,-88.5,-10.5,-15.4,145.4,12.6,-0.2,0.1,-263.8,-0.3,0.0,-2.4,-3.3,-7.2,0,2844,0,129,
1.5833,-10.7,-7.6,-6.4,3.2,2.7,-2.8,-9.2,1.1,12.5,-7.3,-27.8,-109.9,-12.4,-14.6,148.8,13.3,-0.1,0.0,-269.3,0.8,0.0,-5.2,-6.5,-9.4,0,2850,0,130,
1.5867,-9.0,-5.8,-6.2,4.3,4.9,-2.2,-8.8,3.0,-19.7,-8.0,-30.1,-127.5,-11.1,-11.0,155.2,12.7,0.0,-0.1,-272.9,-2.6,0.1,-9.8,-6.2,-9.7,0,2856,0,131,
1.5900,-5.8,-1.6,-3.1,6.8,7.1,-0.2,-7.2,5.3,-28.7,-9.1,-30.0,-123.9,-8.0,-6.3,161.5,13.3,0.0,-0.2,-272.0,-6.1,0.1,-12.5,-2.6,-7.0,0,2862,0,132,
1.5933,-2.6,2.8,1.0,9.3,8.2,3.0,-4.4,7.3,-7.9,-9.9,-27.8,-96.8,-5.0,-2.8,165.0,17.9,0.0,-0.2,-267.4,-5.9,0.1,-11.1,2.0,-2.2,0,2868,0,133,
1.5967,-0.6,5.1,3.7,10.0,7.6,6.1,-0.9,8.4,29.8,-9.8,-24.7,-59.9,-3.4,-1.7,164.7,26.4,-0.1,-0.1,-261.9,-1.0,0.1,-6.2,4.7,2.0,0,2874,0,134,
1.6000,0.4,4.8,3.8,8.3,6.0,7.8,2.2,8.5,58.5,-8.4,-22.2,-33.3,-2.8,-2.2,162.0,35.9,-0.1,0.0,-258.3,5.4,0.1,-0.8,4.1,4.1,0,2880,0,135,
1.6033,0.9,3.0,2.3,5.5,4.6,7.5,4.1,8.3,54.8,-5.7,-21.0,-28.6,-2.0,-2.8,159.0,41.6,0.0,0.0,-256.9,9.1,0.1,2.4,1.7,3.9,0,2886,0,136,
1.6067,1.6,1.6,1.0,3.5,4.3,5.9,4.3,8.6,13.0,-2.4,-21.1,-43.1,-0.3,-2.1,157.4,40.4,0.1,0.0,-256.2,7.9,0.1,2.7,0.1,3.1,0,2892,0,137,
1.6100,2.1,1.5,1.3,3.6,5.6,4.3,3.2,9.6,-49.1,0.3,-21.8,-63.9,1.2,-0.2,157.0,33.3,0.2,0.0,-254.7,3.9,0.1,1.6,0.9,3.3,0,2898,0,138,
1.6133,2.0,2.3,2.8,5.7,8.0,3.9,2.0,11.1,-98.2,1.5,-22.4,-77.9,1.1,1.3,156.9,25.0,0.2,-0.1,-252.8,1.5,0.0,1.3,3.4,5.4,0,2904,0,139,
1.6167,1.0,3.3,4.6,8.4,10.3,5.2,1.4,12.2,-105.0,1.0,-22.1,-79.5,-1.3,0.8,155.7,21.2,0.1,-0.1,-251.9,3.8,-0.1,2.6,5.4,8.8,0,2910,0,140,
1.6200,-0.2,4.0,5.9,10.5,11.1,7.4,1.7,12.6,-61.4,-0.8,-20.6,-71.5,-4.9,-2.3,152.5,24.5,-0.1,-0.1,-252.8,10.2,-0.2,4.6,4.8,11.9,0,2916,0,141,
1.6233,-0.9,4.5,6.9,11.7,9.9,9.0,2.2,12.0,13.5,-3.1,-17.9,-60.9,-7.8,-7.0,147.2,32.9,-0.2,0.0,-254.6,16.6,-0.2,5.0,0.8,13.2,0,2922,0,142,
1.6267,-0.5,5.0,7.8,12.1,6.9,8.8,1.7,10.8,86.3,-5.2,-15.0,-54.2,-8.6,-11.4,140.2,40.8,-0.3,0.0,-255.4,18.6,-0.2,2.3,-5.4,11.7,0,2928,0,143,
1.6300,1.0,5.3,8.4,12.0,3.6,6.7,0.2,9.6,129.6,-7.0,-13.3,-55.0,-7.6,-13.7,132.6,42.9,-0.3,0.0,-253.7,14.6,-0.1,-2.9,-11.9,7.7,0,2934,0,144,
1.6333,2.8,5.0,8.1,11.7,1.6,3.9,-1.7,8.9,138.4,-8.3,-13.4,-63.7,-6.5,-13.3,125.8,38.0,-0.2,0.0,-250.0,7.2,0.0,-8.3,-16.7,2.7,0,2940,0,145,
1.6367,4.2,4.1,6.9,11.3,2.1,2.0,-2.6,9.4,128.7,-9.3,-15.1,-77.7,-6.6,-11.0,121.0,29.3,-0.1,0.0,-245.9,1.0,0.1,-11.2,-18.7,-1.3,0,2946,0,146,
1.6400,4.8,3.1,5.5,11.3,5.0,2.2,-2.0,11.3,121.1,-9.5,-17.0,-91.8,-8.0,-8.4,118.3,22.1,0.0,0.0,-242.8,0.1,0.2,-10.3,-18.1,-2.7,0,2952,0,147,
1.6433,4.8,2.8,5.4,12.6,9.2,4.4,-0.3,14.4,123.9,-8.9,-17.6,-100.0,-9.3,-7.0,116.9,19.7,0.1,0.1,-240.4,5.3,0.1,-6.0,-15.6,-1.3,0,2958,0,148,
1.6467,4.3,3.7,7.5,15.5,13.2,7.3,1.0,17.5,129.5,-7.4,-16.3,-98.6,-9.3,-7.1,115.5,21.6,0.1,0.1,-237.6,14.2,0.1,-0.5,-12.8,1.9,0,2964,0,149,
1.6500,3.7,5.6,11.6,19.1,15.6,9.4,0.9,19.7,125.6,-5.2,-13.5,-87.8,-7.1,-7.7,113.3,24.5,0.1,0.0,-233.4,22.5,0.0,4.5,-10.7,5.4,0,2970,0,150,
1.6533,3.4,7.8,16.1,22.1,16.1,10.2,-0.4,20.6,111.1,-2.6,-10.3,-72.6,-3.4,-7.3,111.4,25.7,0.0,0.0,-228.4,26.7,0.0,8.1,-9.9,8.4,0,2976,0,151,
1.6567,3.9,9.9,19.2,23.1,14.9,10.3,-1.5,20.5,98.7,0.4,-7.2,-59.3,0.8,-4.9,111.4,25.0,0.0,-0.1,-223.7,25.6,0.0,10.6,-9.6,11.1,0,2982,0,152,
1.6600,5.3,12.0,20.6,22.1,13.2,10.8,-1.0,20.3,102.9,3.9,-4.1,-53.0,4.2,-1.1,114.8,25.0,0.0,-0.1,-220.3,20.6,0.0,12.4,-8.6,14.0,0,2988,0,153,
1.6633,6.9,13.7,20.7,20.5,11.8,11.9,1.1,20.5,123.9,7.1,-0.9,-55.8,6.2,2.5,120.9,28.1,0.1,0.0,-217.7,14.7,0.0,13.7,-6.3,17.0,0,2994,0,154,
1.6667,7.9,14.7,20.9,19.5,11.5,12.9,3.4,20.7,144.6,8.2,1.7,-66.5,6.1,4.4,127.5,34.0,0.2,0.1,-214.9,10.9,-0.1,13.8,-3.5,18.8,0,3000,0,155,
1.6700,7.3,13.8,21.4,19.6,12.4,12.7,4.2,19.9,144.6,6.0,2.6,-82.3,3.7,3.9,132.1,39.4,0.2,0.1,-211.3,11.1,-0.1,12.1,-2.1,18.2,0,3006,0,156,
1.6733,4.9,10.6,21.7,20.0,14.0,10.4,2.7,17.8,119.1,0.2,0.7,-98.6,-0.5,2.1,133.7,41.0,0.0,0.1,-207.2,15.1,0.0,8.7,-3.6,14.8,0,3012,0,157,
1.6767,1.6,5.5,20.9,19.4,15.2,6.6,-0.4,14.8,84.7,-6.8,-3.3,-109.9,-5.3,0.5,133.5,37.9,-0.1,0.0,-204.0,21.5,0.1,4.5,-7.9,9.8,0,3018,0,158,
1.6800,-1.4,0.3,18.7,17.1,15.0,2.7,-3.4,11.8,66.4,-11.7,-7.4,-111.3,-9.3,-0.1,133.7,32.4,-0.3,0.0,-202.6,27.8,0.2,0.4,-13.6,5.1,0,3024,0,159,
1.6833,-3.1,-3.1,15.8,13.8,12.7,-0.2,-5.4,9.7,76.1,-12.2,-9.6,-100.6,-11.5,-0.3,135.7,28.6,-0.2,-0.1,-203.2,32.0,0.2,-2.7,-18.2,1.9,0,3030,0,160,
1.6867,-3.4,-3.8,13.4,10.9,8.5,-1.7,-6.3,8.2,102.2,-8.7,-9.0,-80.7,-12.1,-1.4,139.3,28.7,-0.1,0.0,-205.2,33.2,0.1,-4.4,-20.1,0.3,0,3036,0,161,
1.6900,-2.7,-2.1,12.5,9.2,3.7,-2.4,-6.4,6.7,118.3,-4.3,-7.1,-58.2,-12.2,-4.2,142.5,32.0,0.1,0.1,-208.1,31.9,0.0,-4.7,-19.4,-0.1,0,3042,0,162,
1.6933,-1.6,0.7,13.2,9.1,0.3,-2.3,-6.1,5.2,105.1,-2.1,-5.7,-40.9,-12.6,-8.1,143.8,35.8,0.2,0.1,-211.0,29.7,-0.1,-3.4,-16.8,0.5,0,3048,0,163,
1.6967,0.0,3.1,15.0,10.0,0.0,-1.3,-5.0,4.3,65.3,-2.8,-5.6,-33.7,-13.3,-10.8,142.8,38.0,0.1,0.2,-212.9,28.6,0.0,-0.7,-13.7,2.8,0,3054,0,164,
1.7000,1.9,4.8,17.5,11.6,3.3,1.5,-2.6,5.3,20.7,-4.3,-5.7,-36.3,-13.2,-10.8,140.4,38.8,0.1,0.2,-212.5,30.3,0.1,3.2,-10.4,7.5,0,3060,0,165,
1.7033,3.9,5.8,19.9,13.5,9.0,6.0,1.0,8.3,-6.5,-3.7,-4.5,-44.5,-11.4,-7.7,137.7,40.1,0.1,0.2,-209.4,35.3,0.2,7.3,-7.3,13.7,0,3066,0,166,
1.7067,5.4,6.5,21.5,15.3,14.4,10.9,4.4,11.8,-9.9,0.0,-1.8,-53.0,-8.2,-3.4,135.2,43.2,0.1,0.2,-204.5,42.4,0.2,10.5,-4.2,19.1,0,3072,0,167,
1.7100,5.7,6.9,21.6,16.4,17.0,14.4,6.2,13.5,-1.5,4.9,0.8,-58.0,-4.8,0.1,132.0,47.5,0.2,0.2,-200.4,49.2,0.1,11.8,-1.4,21.4,0,3078,0,168,
1.7133,4.8,7.1,20.1,16.2,16.2,15.3,5.7,12.0,2.2,8.0,1.5,-59.1,-2.5,1.6,127.7,50.6,0.2,0.2,-199.4,53.6,0.0,11.4,0.9,20.1,0,3084,0,169,
1.7167,3.8,7.3,17.8,14.8,13.7,13.8,4.0,8.3,-5.3,8.1,0.1,-58.3,-1.7,1.9,122.9,50.5,0.2,0.1,-201.5,54.4,0.0,10.6,2.3,17.1,0,3090,0,170,
1.7200,3.8,8.2,16.0,13.1,12.1,11.7,2.8,5.1,-16.3,6.8,-1.6,-58.6,-1.4,2.5,119.1,47.1,0.0,0.0,-204.7,52.6,0.0,11.0,2.8,15.2,0,3096,0,171,
1.7233,5.1,9.6,15.6,12.1,12.9,10.4,3.1,4.5,-19.2,6.9,-1.4,-61.8,-0.7,4.3,118.0,42.8,-0.1,0.0,-206.3,50.7,0.1,13.4,2.0,16.0,0,3102,0,172,
1.7267,6.8,10.9,16.0,11.6,15.1,10.0,4.3,6.4,-10.4,9.3,0.5,-67.5,0.3,7.1,119.1,40.2,-0.1,0.0,-205.9,50.7,0.1,16.8,-0.4,18.0,0,3108,0,173,
1.7300,7.6,10.5,15.4,10.4,15.9,9.3,4.9,8.2,2.0,12.3,1.5,-73.6,0.3,9.2,120.2,40.5,-0.1,0.1,-205.5,52.3,0.0,19.1,-4.6,18.3,0,3114,0,174,
1.7333,6.2,7.4,12.5,7.2,13.0,6.9,3.4,7.2,8.2,12.7,-1.3,-78.4,-2.1,9.4,118.5,42.7,0.0,0.1,-208.4,53.4,-0.1,18.4,-10.0,14.8,0,3120,0,175,
1.7367,2.9,1.9,7.3,1.8,7.0,2.8,0.1,2.7,6.5,9.1,-7.7,-81.7,-6.7,7.4,112.9,44.4,0.1,0.1,-215.4,51.3,-0.1,14.4,-15.0,8.2,0,3126,0,176,
1.7400,-1.2,-3.9,2.0,-3.7,0.9,-1.4,-3.4,-3.2,4.8,3.6,-13.8,-85.1,-12.0,3.9,105.1,43.5,0.1,0.0,-223.4,45.7,0.0,8.7,-17.9,1.7,0,3132,0,177,
1.7433,-4.5,-7.8,-1.0,-7.0,-2.2,-3.9,-5.4,-7.2,10.5,-0.2,-15.0,-89.0,-15.8,0.1,98.7,39.3,0.1,0.0,-227.5,39.7,0.1,3.9,-18.1,-1.5,0,3138,0,178,
1.7467,-6.5,-8.7,-0.9,-6.7,-1.6,-4.0,-5.6,-7.5,21.1,-0.3,-10.2,-91.7,-17.1,-3.3,96.4,32.9,0.1,0.0,-224.5,37.6,0.1,1.4,-16.5,-0.7,0,3144,0,179,
1.7500,-7.2,-7.6,0.9,-4.1,0.6,-2.5,-5.0,-5.1,24.5,1.2,-2.9,-89.6,-17.3,-6.0,98.1,26.2,0.0,0.0,-216.0,41.4,0.1,0.8,-15.1,2.2,0,3150,0,180,
1.7533,-7.4,-6.4,2.1,-1.7,1.7,-1.0,-4.9,-2.5,10.6,0.3,1.4,-81.4,-18.3,-7.9,100.4,20.9,0.0,0.1,-206.5,48.6,0.1,0.6,-15.4,4.6,0,3156,0,181,
1.7567,-7.1,-6.3,2.0,-0.9,1.3,-0.2,-6.0,-1.6,-17.3,-5.7,0.3,-71.2,-21.2,-8.9,99.7,17.9,0.0,0.2,-199.7,53.8,0.1,-0.4,-17.5,5.2,0,3162,0,182,
1.7600,-6.0,-6.1,2.2,-0.5,1.7,0.7,-7.2,-1.7,-42.4,-14.1,-3.0,-67.2,-24.4,-8.4,94.5,16.1,0.0,0.1,-194.5,53.9,0.1,-1.5,-20.2,5.4,0,3168,0,183,
1.7633,-3.5,-3.5,6.0,2.1,6.2,2.9,-7.2,-0.6,-47.4,-19.1,-1.8,-75.0,-24.9,-6.0,86.5,12.9,0.0,0.0,-186.2,51.2,0.1,-1.0,-21.9,7.3,0,3174,0,184,
1.7667,0.3,3.1,15.2,9.0,15.2,6.9,-5.4,3.6,-28.5,-16.0,8.6,-91.2,-20.1,-2.0,78.5,5.4,0.1,0.0,-171.2,52.8,0.0,2.1,-21.9,11.8,0,3180,0,185,
1.7700,4.6,13.0,28.2,19.2,25.7,11.5,-2.9,10.5,1.0,-5.2,26.9,-103.4,-10.7,3.0,71.9,-7.7,0.2,0.1,-150.8,63.8,-0.1,6.9,-20.9,17.4,0,3186,0,186,
1.7733,8.0,23.1,40.9,29.2,33.6,14.7,-1.3,17.7,21.0,7.5,46.8,-97.8,-0.3,7.8,65.2,-25.0,0.2,0.2,-131.8,82.0,-0.2,10.8,-20.3,21.7,0,3192,0,187,
1.7767,9.6,29.5,49.2,35.3,35.9,15.3,-1.7,22.0,21.2,15.3,61.8,-69.4,6.9,11.3,56.2,-42.5,0.2,0.3,-121.9,98.4,-0.2,11.6,-21.0,22.7,0,3198,0,188,
1.7800,9.3,30.3,51.4,36.0,33.8,13.8,-3.7,22.1,9.1,15.0,69.4,-27.1,8.7,12.7,45.0,-55.7,0.1,0.4,-123.9,103.5,-0.2,8.8,-23.0,20.6,0,3204,0,189,
1.7833,7.5,26.5,49.0,32.9,30.1,11.6,-5.9,19.0,3.6,9.1,72.1,11.7,6.1,12.0,35.3,-62.3,0.0,0.3,-133.5,95.3,-0.1,4.1,-25.6,17.3,0,3210,0,190,
1.7867,5.4,21.3,45.2,29.1,27.6,10.1,-6.5,14.9,18.3,3.1,74.3,32.0,2.4,9.7,32.8,-63.2,0.1,0.2,-142.7,80.9,0.1,-0.1,-28.0,14.6,0,3216,0,191,
1.7900,3.7,17.5,42.2,26.7,27.2,9.8,-5.2,11.8,49.5,0.9,79.0,30.1,0.7,7.6,40.6,-61.1,0.1,0.2,-145.5,70.8,0.2,-2.6,-29.5,13.6,0,3222,0,192,
1.7933,3.1,16.7,40.9,26.4,28.4,10.2,-2.6,10.6,77.1,3.0,85.9,14.0,2.3,7.1,56.3,-58.2,0.2,0.2,-141.3,70.7,0.2,-3.7,-30.0,14.0,0,3228,0,193,
1.7967,3.8,18.2,40.9,27.2,30.9,10.9,0.4,11.0,80.7,6.5,93.8,-4.3,6.3,9.2,72.7,-54.4,0.2,0.2,-134.0,77.8,0.1,-4.5,-29.2,15.0,0,3234,0,194,
1.8000,5.7,20.8,41.7,28.4,35.1,11.9,3.1,12.3,56.6,8.8,101.5,-17.0,10.7,13.2,82.3,-47.9,0.1,0.1,-128.2,84.8,0.0,-5.6,-27.6,15.5,0,3240,0,195,
1.8033,8.0,22.7,42.8,29.9,40.8,13.0,4.9,13.7,21.5,9.0,108.4,-23.3,13.5,17.3,82.6,-38.0,0.0,0.0,-126.2,87.2,-0.1,-7.0,-25.7,14.7,0,3246,0,196,
1.8067,9.6,23.1,43.1,31.4,45.9,13.3,5.8,14.4,-0.3,7.9,113.3,-26.5,13.9,19.1,77.2,-25.9,-0.1,-0.1,-127.5,86.3,-0.1,-8.6,-24.3,12.0,0,3252,0,197,
1.8100,9.5,21.3,41.7,32.3,47.0,11.7,5.5,13.5,4.0,6.0,114.0,-28.7,11.9,17.2,72.9,-15.3,-0.1,-0.2,-131.2,86.8,0.0,-10.7,-23.8,7.2,0,3258,0,198,
1.8133,7.3,17.4,37.7,31.7,42.3,7.8,4.2,10.6,26.2,2.8,108.7,-27.5,8.1,12.3,74.6,-9.0,-0.1,-0.2,-137.1,90.4,0.0,-14.0,-23.5,1.8,0,3264,0,199,
1.8167,3.9,12.3,32.0,29.1,32.8,2.7,2.6,6.6,45.2,-2.2,98.4,-17.1,3.8,6.8,82.2,-7.0,-0.1,-0.2,-144.8,94.1,0.0,-18.0,-22.1,-2.4,0,3270,0,200,
1.8200,0.9,7.8,26.8,25.3,22.4,-1.1,1.8,3.0,45.0,-8.0,87.5,6.4,0.7,3.4,91.9,-6.8,-0.1,-0.1,-152.4,93.7,0.0,-21.5,-18.5,-3.6,0,3276,0,201,
1.8233,-0.3,5.7,24.4,21.5,14.7,-2.1,2.3,1.1,25.4,-11.7,81.0,40.4,0.2,3.2,99.2,-5.2,0.0,0.0,-156.3,88.1,-0.1,-22.8,-12.7,-2.3,0,3282,0,202,
1.8267,0.2,6.0,25.3,18.6,10.1,-1.0,3.4,1.2,-1.8,-11.1,80.2,73.5,2.3,5.4,102.8,-1.4,0.0,0.0,-154.3,80.8,-0.2,-21.6,-7.0,-0.7,0,3288,0,203,
1.8300,1.3,7.4,26.8,15.6,6.5,-0.5,3.1,1.7,-26.5,-6.2,81.8,89.0,5.6,7.9,104.7,2.6,0.1,0.0,-148.6,74.5,-0.2,-19.9,-4.5,-1.6,0,3294,0,204,
1.8333,1.3,7.2,25.6,11.0,1.3,-3.5,-0.1,0.5,-48.5,0.0,79.3,73.8,7.6,8.5,107.1,3.8,0.1,0.0,-145.6,66.9,-0.1,-20.2,-7.2,-6.3,0,3300,0,205,
1.8367,-0.3,4.2,19.7,4.2,-5.5,-10.3,-5.9,-3.3,-73.0,3.3,68.4,27.1,6.5,6.7,110.1,1.6,0.1,0.0,-151.4,52.1,-0.1,-24.0,-14.7,-13.4,0,3306,0,206,
1.8400,-2.5,-0.7,10.7,-3.2,-10.7,-18.0,-12.3,-8.5,-99.6,1.8,50.5,-35.0,2.7,3.4,111.5,-1.6,0.0,-0.1,-166.8,27.7,-0.1,-29.8,-24.1,-19.7,0,3312,0,207,
1.8433,-4.0,-4.3,2.7,-8.0,-11.4,-22.6,-16.2,-12.1,-119.2,-3.2,31.8,-87.2,-1.5,0.3,108.3,-2.6,-0.1,-0.1,-185.3,0.4,-0.1,-34.2,-31.6,-22.7,0,3318,0,208,
1.8467,-3.5,-3.6,-0.6,-7.7,-7.1,-21.9,-16.3,-12.1,-123.2,-8.2,19.4,-109.1,-3.3,-1.2,100.2,-0.1,-0.1,-0.2,-197.1,-16.7,-0.2,-34.4,-35.1,-22.1,0,3324,0,209,
1.8500,-1.4,1.8,1.3,-2.4,-1.0,-17.3,-13.6,-8.2,-116.1,-10.3,15.8,-98.8,-1.5,-1.2,89.3,3.7,0.0,-0.3,-195.6,-13.4,-0.1,-30.5,-34.5,-20.1,0,3330,0,210,
1.8533,1.1,9.4,6.0,4.6,2.5,-12.7,-10.8,-2.7,-116.7,-9.1,18.2,-73.5,3.3,-0.3,79.1,4.8,0.0,-0.3,-182.8,7.0,-0.1,-25.3,-31.9,-19.2,0,3336,0,211,
1.8567,2.6,15.3,9.8,9.5,1.3,-11.4,-10.4,1.1,-143.1,-6.2,20.8,-56.2,8.8,0.6,72.0,0.9,0.1,-0.2,-167.9,29.5,-0.1,-22.3,-29.3,-20.3,0,3342,0,212,
1.8600,2.5,17.2,10.6,9.9,-3.3,-13.8,-12.4,1.4,-194.7,-3.8,18.5,-58.9,13.1,1.3,67.6,-6.3,0.1,-0.1,-160.9,38.0,0.0,-22.9,-27.4,-22.4,0,3348,0,213,
1.8633,1.7,15.2,8.9,6.5,-8.0,-17.3,-14.9,-1.5,-248.2,-2.3,10.7,-74.7,15.6,2.3,64.0,-12.4,0.0,-0.1,-165.7,27.8,0.0,-25.4,-25.7,-23.6,0,3354,0,214,
1.8667,1.0,12.0,6.8,2.1,-10.4,-19.0,-15.7,-5.5,-274.2,-0.9,0.1,-86.2,16.8,3.7,59.4,-13.2,-0.1,-0.1,-178.8,8.6,-0.1,-26.7,-23.3,-22.5,0,3360,0,215,
1.8700,1.1,10.0,5.9,-1.0,-11.0,-17.7,-14.0,-8.7,-261.5,1.4,-9.2,-81.7,17.8,5.4,53.4,-8.4,-0.2,-0.2,-191.7,-5.0,-0.1,-25.2,-19.8,-19.5,0,3366,0,216,
1.8733,1.8,10.0,5.7,-2.4,-12.3,-14.8,-11.2,-10.5,-227.5,4.5,-14.8,-65.7,18.8,6.9,47.2,-1.0,-0.2,-0.3,-198.2,-5.7,-0.1,-21.5,-15.7,-15.9,0,3372,0,217,
1.8767,2.4,11.1,5.0,-3.6,-16.9,-13.3,-9.2,-11.4,-204.8,6.8,-16.9,-53.3,19.8,7.8,42.2,4.7,-0.2,-0.3,-197.2,1.1,-0.1,-18.2,-11.6,-13.4,0,3378,0,218,
1.8800,2.5,11.2,2.4,-6.2,-24.7,-14.7,-9.2,-12.5,-214.1,7.0,-17.7,-55.1,20.6,7.9,39.5,6.0,-0.2,-0.2,-193.1,4.1,0.0,-17.4,-7.1,-12.7,0,3384,0,219,
1.8833,2.0,9.7,-1.6,-10.8,-33.7,-18.4,-10.5,-14.0,-247.1,4.8,-19.5,-67.4,21.4,7.7,38.7,4.1,-0.2,-0.1,-190.8,-2.7,0.0,-19.2,-1.8,-13.4,0,3390,0,220,
1.8867,1.3,7.1,-5.9,-16.0,-40.6,-22.2,-11.2,-15.2,-274.0,1.8,-23.7,-76.5,22.1,7.4,38.8,1.9,-0.1,0.0,-192.6,-14.8,0.1,-21.7,4.8,-14.9,0,3396,0,221,
1.8900,0.8,4.5,-8.8,-19.6,-43.1,-23.9,-10.2,-15.3,-270.5,0.0,-29.8,-73.8,22.6,7.1,38.4,2.1,-0.1,0.1,-196.8,-22.5,0.1,-22.9,11.4,-16.3,0,3402,0,222,
1.8933,0.4,2.9,-10.2,-20.5,-41.2,-23.0,-7.6,-14.1,-238.5,0.4,-36.3,-65.7,22.1,6.6,36.2,5.2,-0.1,0.2,-199.9,-21.1,0.1,-22.2,16.1,-17.0,0,3408,0,223,
1.8967,-0.2,2.2,-10.6,-19.2,-36.3,-20.8,-4.8,-12.6,-204.9,2.8,-41.5,-69.0,20.4,5.3,31.8,9.4,-0.1,0.2,-199.5,-15.4,0.1,-20.5,16.7,-16.6,0,3414,0,224,
1.9000,-1.6,1.5,-10.7,-17.2,-31.0,-18.8,-3.3,-11.9,-198.4,5.2,-44.7,-94.9,17.9,3.1,25.3,12.1,-0.1,0.0,-195.9,-14.9,0.1,-19.2,13.1,-15.3,0,3420,0,225,
1.9033,-4.0,0.2,-11.1,-15.8,-27.0,-18.1,-3.6,-12.4,-225.6,6.0,-46.4,-136.9,15.6,0.0,18.2,11.9,-0.1,-0.1,-191.0,-24.6,0.0,-19.0,6.7,-13.8,0,3426,0,226,
1.9067,-7.3,-2.1,-11.7,-15.4,-24.8,-18.6,-5.2,-13.5,-267.2,4.0,-47.6,-174.2,14.5,-3.9,12.3,8.8,-0.1,-0.2,-186.7,-39.8,-0.1,-20.0,0.5,-13.4,0,3432,0,227,
1.9100,-11.0,-4.7,-12.4,-15.6,-24.0,-19.5,-7.0,-14.2,-294.3,-0.3,-49.5,-188.4,14.5,-8.2,9.1,4.3,-0.1,-0.3,-183.6,-51.0,-0.1,-21.9,-3.5,-14.9,0,3438,0,228,
1.9133,-14.2,-7.1,-13.2,-15.5,-23.6,-20.5,-8.6,-14.1,-291.8,-5.7,-52.3,-178.4,14.6,-12.4,8.3,0.5,-0.1,-0.2,-181.2,-52.8,-0.1,-24.9,-4.5,-18.6,0,3444,0,229,
1.9167,-16.3,-8.8,-14.4,-15.1,-22.9,-21.7,-9.8,-13.7,-267.0,-10.6,-55.6,-160.7,13.5,-16.3,8.5,-1.1,-0.1,-0.1,-178.7,-48.7,0.0,-29.2,-3.5,-23.3,0,3450,0,230,
1.9200,-16.9,-9.7,-15.8,-14.5,-22.1,-23.2,-11.0,-13.7,-240.5,-13.5,-58.0,-154.6,11.2,-19.1,7.1,0.0,-0.1,0.0,-176.2,-48.0,0.1,-33.8,-2.3,-27.1,0,3456,0,231,
1.9233,-16.4,-9.7,-16.8,-14.0,-21.4,-24.7,-12.1,-14.5,-229.2,-13.7,-58.7,-166.4,9.2,-20.4,1.8,3.1,-0.1,-0.1,-173.8,-57.0,0.1,-36.7,-1.9,-28.0,0,3462,0,232,
1.9267,-15.4,-8.9,-16.5,-13.4,-20.9,-25.5,-12.6,-15.6,-235.7,-11.2,-57.4,-184.7,9.2,-19.8,-7.8,6.2,-0.1,-0.2,-171.7,-73.6,0.0,-35.7,-2.2,-25.5,0,3468,0,233,
1.9300,-14.4,-7.0,-14.3,-12.1,-20.2,-24.8,-12.2,-15.8,-250.7,-7.1,-54.4,-191.7,12.1,-17.8,-20.5,7.0,-0.1,-0.2,-168.9,-88.2,0.0,-30.3,-2.2,-20.6,0,3474,0,234,
1.9333,-13.6,-3.9,-10.5,-9.5,-19.0,-22.5,-10.8,-14.2,-261.6,-2.2,-50.3,-177.7,17.5,-14.9,-33.6,4.2,-0.1,-0.2,-164.5,-91.8,0.0,-22.7,-1.3,-15.4,0,3480,0,235,
1.9367,-12.6,0.2,-5.9,-5.7,-17.4,-19.0,-9.1,-11.1,-261.0,2.3,-45.9,-148.3,23.5,-12.0,-44.2,-2.0,0.1,-0.1,-158.0,-81.7,0.1,-16.3,0.8,-11.8,0,3486,0,236,
1.9400,-11.0,4.8,-1.9,-1.6,-15.9,-15.5,-7.6,-7.5,-248.8,5.9,-42.1,-119.4,28.6,-9.4,-50.0,-9.2,0.1,0.1,-150.4,-63.4,0.1,-13.6,3.5,-10.7,0,3492,0,237,
1.9433,-8.7,8.9,0.6,1.3,-14.8,-13.0,-6.9,-4.6,-231.0,8.2,-39.9,-105.4,32.0,-6.9,-49.7,-14.2,0.2,0.1,-144.3,-46.7,0.1,-14.7,6.0,-11.2,0,3498,0,238,
1.9467,-6.4,11.3,0.6,1.8,-14.4,-12.1,-7.0,-3.3,-216.7,8.8,-40.2,-111.5,33.6,-4.3,-44.0,-14.6,0.2,0.1,-142.0,-40.1,0.1,-17.6,7.3,-12.5,0,3504,0,239,
1.9500,-5.0,10.9,-2.3,-0.7,-14.5,-13.3,-7.8,-3.7,-214.2,7.4,-43.7,-132.2,33.5,-1.7,-35.4,-10.4,0.1,0.0,-144.7,-47.4,0.0,-20.6,6.9,-13.9,0,3510,0,240,
1.9533,-5.0,7.3,-7.9,-5.9,-15.4,-16.4,-9.1,-5.4,-226.4,4.0,-50.0,-156.1,31.3,0.2,-27.7,-4.2,0.0,0.0,-150.9,-66.2,-0.1,-23.3,4.5,-15.8,0,3516,0,241,
1.9567,-6.7,1.2,-15.5,-12.4,-17.6,-21.2,-10.9,-8.2,-248.1,-0.7,-57.5,-172.2,26.9,0.0,-24.4,0.5,0.0,0.0,-157.1,-89.4,-0.1,-26.6,0.5,-18.7,0,3522,0,242,
1.9600,-9.4,-6.1,-23.5,-18.7,-21.5,-26.3,-12.9,-11.9,-267.9,-5.1,-64.1,-174.3,21.3,-3.0,-26.5,1.2,0.1,0.1,-159.6,-107.7,0.0,-30.8,-4.0,-22.4,0,3528,0,243,
1.9633,-11.8,-12.6,-30.0,-23.3,-26.8,-30.3,-14.3,-16.2,-275.1,-7.6,-68.3,-163.7,16.2,-7.9,-31.6,-2.2,0.1,0.1,-156.3,-113.8,0.0,-34.3,-7.8,-25.7,0,3534,0,244,
1.9667,-13.0,-17.0,-34.3,-25.6,-31.7,-31.6,-14.5,-20.2,-266.9,-8.1,-70.2,-148.9,13.5,-12.7,-35.2,-7.5,0.1,0.1,-147.8,-106.1,0.1,-35.5,-10.1,-27.3,0,3540,0,245,
1.9700,-12.5,-19.0,-36.6,-25.9,-34.5,-30.1,-13.3,-23.0,-250.9,-7.5,-71.4,-141.7,13.1,-14.9,-33.7,-12.0,0.1,0.0,-137.2,-89.8,0.1,-33.7,-10.6,-27.1,0,3546,0,246,
1.9733,-10.9,-19.6,-38.3,-25.7,-34.8,-27.2,-10.9,-24.2,-238.8,-7.7,-73.8,-149.4,13.6,-13.7,-26.4,-14.0,0.0,-0.1,-128.1,-74.2,0.0,-31.0,-10.2,-26.1,0,3552,0,247,
1.9767,-9.0,-20.1,-40.6,-26.3,-34.3,-25.0,-8.6,-23.9,-237.4,-10.0,-78.4,-169.1,12.7,-10.3,-16.6,-13.8,0.0,-0.2,-123.2,-66.5,0.0,-30.3,-9.7,-26.1,0,3558,0,248,
1.9800,-8.0,-21.5,-43.8,-28.5,-35.4,-25.2,-7.2,-23.0,-243.8,-13.9,-84.3,-188.1,9.8,-7.1,-9.1,-12.7,-0.1,-0.1,-123.0,-67.5,0.0,-33.1,-9.6,-27.7,0,3564,0,249,
1.9833,-8.1,-23.3,-46.8,-31.8,-38.9,-27.4,-6.7,-22.3,-248.6,-17.5,-89.8,-193.7,6.2,-6.3,-6.8,-12.0,-0.1,0.0,-126.3,-72.5,0.1,-37.4,-9.2,-29.9,0,3570,0,250,
1.9867,-8.8,-24.2,-47.9,-34.3,-42.3,-29.4,-6.4,-21.4,-244.2,-18.9,-93.1,-183.2,4.8,-8.1,-9.3,-11.8,-0.1,0.1,-131.5,-75.0,0.1,-39.2,-7.8,-30.4,0,3576,0,251,
1.9900,-9.0,-22.7,-45.9,-34.2,-41.4,-28.3,-5.0,-19.5,-231.6,-17.4,-93.6,-167.5,7.3,-10.6,-13.7,-11.3,-0.1,0.1,-136.7,-72.8,0.1,-35.6,-4.9,-27.3,0,3582,0,252,
1.9933,-7.8,-18.2,-40.9,-30.5,-33.6,-22.9,-2.3,-15.6,-218.8,-13.6,-91.8,-162.5,13.3,-11.3,-17.0,-9.5,0.0,0.0,-141.0,-68.8,0.0,-26.7,-0.9,-20.8,0,3588,0,253,
1.9967,-5.0,-11.8,-34.0,-23.7,-20.6,-14.5,1.3,-9.7,-213.3,-8.8,-88.5,-174.9,20.1,-9.1,-18.1,-6.2,0.0,-0.1,-143.3,-67.1,-0.1,-16.0,2.9,-13.0,0,3594,0,254,
2.0000,-1.6,-5.3,-27.0,-15.7,-8.2,-6.6,4.3,-2.9,-214.6,-4.2,-84.1,-195.0,25.0,-5.2,-17.4,-1.7,0.1,-0.1,-143.3,-68.8,-0.1,-7.5,5.3,-6.8,0,3600,0,255,
2.0033,1.2,-0.8,-21.3,-9.1,-2.5,-2.4,5.7,3.2,-214.5,0.0,-78.9,-203.3,27.2,-1.7,-15.6,2.9,0.1,-0.1,-141.5,-70.3,-0.1,-3.1,6.0,-4.0,0,3606,0,0,
2.0067,2.3,1.1,-17.7,-5.5,-5.3,-2.5,5.6,7.2,-203.7,3.7,-73.5,-186.6,27.6,-0.6,-12.6,6.8,0.1,0.0,-139.7,-67.0,0.1,-2.0,5.7,-4.0,0,3612,0,1,
2.0100,1.7,0.8,-16.3,-5.0,-12.9,-5.0,4.8,8.8,-180.0,6.4,-69.0,-150.7,28.3,-2.1,-8.5,9.3,0.1,0.1,-140.0,-58.1,0.2,-2.2,5.3,-4.6,0,3618,0,2,
2.0133,0.1,-0.7,-16.9,-6.6,-18.5,-6.7,4.2,8.5,-151.5,7.2,-67.2,-117.0,29.9,-4.7,-4.1,9.6,0.0,0.1,-144.1,-48.2,0.2,-2.8,5.7,-3.6,0,3624,0,3,
2.0167,-1.8,-3.0,-18.8,-8.9,-17.9,-5.9,4.1,6.6,-132.7,5.5,-68.9,-107.6,31.0,-6.8,-1.3,7.3,0.0,0.0,-151.9,-43.7,0.1,-4.2,7.0,-0.7,0,3630,0,4,
2.0200,-3.7,-6.2,-21.3,-11.1,-11.7,-3.5,3.6,3.0,-135.4,1.6,-73.4,-127.6,29.5,-8.0,-1.2,2.7,-0.1,-0.1,-161.3,-46.9,0.0,-7.7,8.7,2.4,0,3636,0,5,
2.0233,-5.8,-11.1,-24.1,-13.4,-5.5,-2.1,1.6,-2.4,-161.6,-3.3,-78.8,-161.3,24.4,-9.1,-2.5,-2.8,-0.1,-0.2,-169.6,-53.4,0.0,-13.3,9.9,3.0,0,3642,0,6,
2.0267,-8.3,-17.2,-27.1,-16.4,-4.8,-4.4,-2.1,-9.1,-200.0,-8.0,-82.8,-184.1,16.9,-11.2,-2.2,-7.7,-0.1,-0.2,-175.1,-55.6,-0.1,-19.7,9.6,-0.4,0,3648,0,7,
2.0300,-10.8,-23.1,-30.5,-20.1,-11.1,-10.3,-6.6,-15.5,-229.3,-11.7,-84.5,-180.8,9.7,-14.5,1.9,-11.2,-0.2,-0.1,-177.6,-49.3,-0.1,-24.6,7.5,-7.0,0,3654,0,8,
2.0333,-12.6,-26.9,-34.1,-23.8,-20.9,-17.4,-10.2,-19.6,-226.4,-14.3,-84.0,-156.9,5.5,-17.7,8.5,-14.0,-0.2,-0.1,-178.3,-37.9,0.0,-26.4,3.9,-13.8,0,3660,0,9,
2.0367,-13.0,-27.2,-37.2,-26.4,-28.6,-22.6,-11.9,-20.6,-179.1,-15.7,-82.8,-132.8,5.3,-19.2,13.1,-18.1,-0.2,0.0,-178.2,-30.1,0.1,-25.3,0.1,-17.9,0,3666,0,10,
2.0400,-11.8,-24.3,-38.7,-27.2,-31.0,-24.1,-11.7,-19.2,-95.6,-15.4,-81.5,-127.8,8.2,-18.3,11.3,-25.2,-0.1,0.1,-177.6,-32.6,0.1,-22.8,-2.2,-18.6,0,3672,0,11,
2.0433,-9.3,-19.7,-37.8,-26.3,-29.0,-22.7,-10.7,-17.4,-3.7,-12.9,-79.8,-146.1,12.6,-15.6,3.2,-35.1,0.0,0.1,-175.9,-43.9,0.1,-20.7,-1.7,-17.3,0,3678,0,12,
2.0467,-6.4,-15.3,-34.4,-24.6,-26.2,-20.4,-9.9,-16.8,62.1,-8.4,-76.5,-174.6,17.0,-13.0,-5.7,-46.0,0.2,0.1,-172.5,-54.7,0.1,-19.6,1.9,-16.3,0,3684,0,13,
2.0500,-3.9,-12.0,-29.6,-22.8,-25.4,-19.0,-9.7,-17.4,81.5,-3.1,-70.9,-194.1,20.8,-11.9,-8.0,-54.8,0.3,0.1,-167.6,-55.0,0.0,-18.6,7.3,-16.2,0,3690,0,14,
2.0533,-1.9,-9.7,-24.8,-21.2,-26.3,-18.4,-9.5,-17.9,61.1,1.1,-63.8,-194.3,24.0,-12.2,0.4,-59.9,0.3,0.1,-162.7,-41.8,0.0,-16.2,12.6,-15.6,0,3696,0,15,
2.0567,-0.6,-7.5,-21.3,-19.4,-26.3,-17.5,-8.4,-17.0,28.8,2.8,-57.3,-180.5,27.1,-12.7,16.4,-61.5,0.3,0.1,-159.7,-22.0,0.0,-12.0,16.5,-12.8,0,3702,0,16,
2.0600,0.2,-5.1,-19.3,-17.2,-23.1,-15.4,-6.5,-14.7,12.2,2.2,-53.8,-168.5,30.2,-11.8,32.3,-61.8,0.3,0.1,-159.9,-8.0,0.1,-7.3,18.5,-7.4,0,3708,0,17,
2.0633,0.6,-2.9,-18.7,-14.8,-17.0,-12.7,-4.8,-12.5,18.4,0.4,-54.5,-171.6,32.8,-9.2,40.6,-63.1,0.2,0.1,-163.7,-8.0,0.1,-4.9,19.7,-2.0,0,3714,0,18,
2.0667,0.4,-1.7,-18.5,-12.7,-11.0,-10.9,-4.3,-12.3,32.2,-1.3,-58.3,-189.9,34.8,-6.1,38.8,-66.3,0.2,0.1,-170.4,-20.6,0.2,-6.6,21.4,-0.1,0,3720,0,19,
2.0700,-0.6,-2.0,-18.4,-11.6,-8.2,-11.1,-5.6,-14.4,34.2,-2.3,-62.5,-209.7,35.6,-4.5,30.2,-70.6,0.2,0.1,-178.6,-34.8,0.1,-11.8,24.5,-3.4,0,3726,0,20,
2.0733,-2.3,-3.1,-17.8,-11.3,-9.4,-12.7,-7.8,-17.5,22.7,-2.8,-64.1,-213.3,35.4,-5.7,21.1,-74.4,0.1,0.1,-186.7,-38.3,0.0,-17.2,28.9,-9.6,0,3732,0,21,
2.0767,-4.3,-3.9,-16.7,-11.1,-13.2,-14.0,-9.3,-19.3,18.7,-2.8,-61.8,-191.8,34.3,-9.0,16.0,-75.9,0.1,0.1,-192.7,-26.0,-0.1,-18.8,33.5,-14.0,0,3738,0,22,
2.0800,-5.9,-3.5,-14.9,-9.9,-16.9,-13.3,-9.0,-18.2,47.4,-2.3,-56.0,-152.3,33.1,-12.4,15.7,-74.2,0.0,0.1,-195.1,-3.1,-0.2,-15.4,37.1,-13.4,0,3744,0,23,
2.0833,-6.7,-1.9,-12.4,-7.2,-18.7,-10.3,-6.8,-14.6,111.3,-1.0,-49.0,-112.9,32.7,-13.9,18.4,-69.6,-0.1,0.1,-193.2,18.7,-0.1,-9.4,39.3,-7.9,0,3750,0,24,
2.0867,-6.3,0.2,-9.5,-3.6,-19.2,-6.7,-3.6,-10.0,180.6,0.8,-43.3,-91.2,33.5,-13.0,21.3,-63.0,-0.1,0.1,-187.8,30.1,0.0,-5.6,40.3,-1.6,0,3756,0,25,
2.0900,-5.1,1.5,-6.9,-0.3,-19.8,-4.5,-0.5,-5.9,210.3,2.0,-40.4,-92.5,35.0,-10.9,23.3,-55.9,0.0,0.0,-181.4,29.9,0.1,-7.3,40.7,1.2,0,3762,0,26,
2.0933,-3.7,1.8,-5.4,1.6,-21.5,-4.8,1.4,-3.4,174.4,1.5,-40.2,-108.0,36.1,-9.7,24.2,-49.3,0.0,-0.1,-176.7,24.9,0.1,-13.7,40.9,-1.2,0,3768,0,27,
2.0967,-2.8,1.5,-5.2,1.4,-23.8,-7.1,2.2,-2.6,88.5,-0.9,-41.3,-122.6,35.9,-10.4,24.5,-43.8,0.1,-0.1,-175.8,23.3,0.1,-20.6,40.6,-6.7,0,3774,0,28,
2.1000,-2.5,1.4,-6.1,0.0,-25.1,-9.7,2.0,-3.0,2.1,-3.6,-41.9,-126.8,34.4,-12.6,25.2,-39.2,0.0,-0.1,-178.2,28.0,0.0,-23.4,39.3,-11.5,0,3780,0,29,
2.1033,-2.7,2.4,-6.9,-1.2,-24.1,-11.1,1.3,-4.4,-35.8,-4.6,-40.8,-121.9,32.8,-14.4,27.0,-34.7,-0.1,0.0,-182.1,35.3,-0.1,-20.7,36.6,-12.9,0,3786,0,30,
2.1067,-3.0,4.2,-6.8,-1.1,-20.6,-11.1,0.7,-6.0,-11.5,-2.6,-37.9,-116.8,32.5,-14.2,30.9,-30.3,-0.2,0.0,-185.6,39.3,-0.2,-14.7,33.2,-11.3,0,3792,0,31,
2.1100,-3.1,5.8,-5.5,0.9,-16.1,-10.3,0.3,-7.0,44.5,1.7,-34.4,-118.1,34.0,-12.1,36.9,-26.3,-0.2,0.0,-188.5,37.5,-0.2,-9.4,30.8,-8.9,0,3798,0,32,
2.1133,-3.5,5.9,-3.6,3.8,-12.6,-9.9,0.3,-7.0,81.1,5.5,-32.0,-125.4,36.0,-9.2,44.0,-23.5,-0.2,-0.1,-192.1,33.1,-0.1,-7.5,31.0,-7.7,0,3804,0,33,
2.1167,-4.5,3.9,-2.6,5.9,-11.6,-10.6,0.7,-5.9,63.7,6.3,-32.0,-132.8,36.6,-7.3,51.0,-21.7,-0.1,-0.1,-198.2,31.6,-0.1,-8.6,34.2,-8.3,0,3810,0,34,
2.1200,-6.4,0.2,-3.1,6.0,-12.9,-11.9,1.4,-4.7,-4.0,3.5,-34.9,-136.4,34.7,-7.0,57.8,-19.9,0.0,-0.1,-206.4,35.3,0.0,-10.2,38.9,-9.2,0,3816,0,35,
2.1233,-8.6,-4.0,-4.8,4.1,-14.4,-12.8,2.0,-4.2,-86.4,-0.8,-39.1,-138.7,31.0,-7.6,66.0,-15.9,0.0,0.0,-214.1,41.6,0.1,-10.0,42.2,-8.7,0,3822,0,36,
2.1267,-10.1,-7.0,-6.2,1.7,-14.0,-11.8,2.7,-4.8,-143.9,-3.0,-42.7,-145.0,28.1,-8.0,77.9,-8.6,0.0,0.2,-217.1,46.1,0.0,-7.1,42.1,-6.1,0,3828,0,37,
2.1300,-10.1,-7.5,-5.8,0.5,-11.0,-8.7,3.7,-5.7,-157.0,-0.9,-43.8,-155.8,28.0,-7.2,93.9,1.4,0.0,0.2,-213.0,47.3,-0.1,-2.0,37.8,-1.8,0,3834,0,38,
2.1333,-8.9,-5.6,-3.2,1.1,-7.1,-4.3,5.3,-5.5,-132.1,4.6,-42.6,-163.6,30.8,-5.9,111.2,11.4,0.0,0.2,-202.9,48.5,-0.2,4.1,30.4,2.7,0,3840,0,39,
2.1367,-7.5,-2.7,0.5,2.6,-5.4,0.1,7.2,-3.8,-89.3,10.2,-40.8,-158.2,34.3,-5.4,124.5,17.9,0.0,0.1,-191.1,54.1,-0.3,9.8,21.2,5.9,0,3846,0,40,
2.1400,-7.2,0.0,3.5,3.2,-7.7,2.9,8.9,-0.7,-48.2,12.0,-40.7,-137.7,35.9,-7.0,129.2,18.4,0.0,-0.1,-182.5,64.0,-0.2,13.6,11.4,6.9,0,3852,0,41,
2.1433,-8.7,1.4,4.7,2.4,-12.4,4.0,9.6,2.6,-21.0,8.8,-43.2,-114.0,34.5,-10.9,123.4,12.5,0.0,-0.1,-179.8,71.9,-0.1,13.9,1.5,6.0,0,3858,0,42,
2.1467,-11.2,1.9,4.3,0.9,-15.0,4.4,9.2,5.4,-14.0,2.5,-47.4,-106.0,31.1,-15.8,109.5,2.0,-0.1,0.0,-182.7,69.7,-0.1,9.9,-7.7,4.2,0,3864,0,43,
2.1500,-13.6,2.5,3.3,0.3,-11.7,5.3,8.1,7.3,-28.6,-2.7,-51.2,-125.0,28.4,-20.0,92.1,-9.5,-0.1,0.1,-188.7,54.8,-0.1,2.6,-14.9,2.6,0,3870,0,44,
2.1533,-14.5,3.7,2.7,1.1,-2.5,7.0,7.0,8.2,-59.6,-3.9,-52.8,-163.3,27.8,-22.1,76.0,-18.1,0.0,0.2,-195.8,33.8,-0.2,-5.6,-18.5,1.7,0,3876,0,45,
2.1567,-13.8,5.6,2.7,2.5,7.3,8.7,6.2,7.8,-93.1,-0.8,-51.8,-197.1,29.3,-21.6,63.9,-20.4,0.1,0.2,-202.8,18.8,-0.3,-11.9,-18.1,0.6,0,3882,0,46,
2.1600,-12.2,7.1,2.7,2.7,11.5,8.7,5.3,5.8,-111.5,3.8,-49.4,-201.9,31.0,-19.2,57.0,-15.3,0.2,0.0,-209.7,19.8,-0.2,-14.7,-15.4,-1.6,0,3888,0,47,
2.1633,-10.5,7.4,2.1,0.7,6.7,6.4,3.9,2.4,-104.9,6.9,-47.1,-170.0,31.3,-16.2,54.4,-4.6,0.2,-0.1,-215.9,38.1,-0.1,-14.3,-13.0,-5.4,0,3894,0,48,
2.1667,-9.1,6.3,1.2,-2.4,-3.8,2.8,2.1,-1.4,-79.3,7.0,-45.2,-116.2,29.8,-13.8,54.9,7.4,0.1,-0.2,-220.4,65.4,0.0,-11.8,-12.9,-9.6,0,3900,0,49,
2.1700,-7.7,4.6,0.4,-4.2,-13.2,0.1,0.5,-3.7,-54.4,5.3,-43.4,-68.3,27.7,-12.5,56.9,16.4,0.0,-0.2,-221.9,90.1,0.1,-8.2,-14.4,-12.2,0,3906,0,50,
2.1733,-5.9,3.4,0.0,-3.1,-15.5,-0.1,0.1,-3.7,-50.6,4.6,-41.1,-49.0,26.2,-12.0,59.8,19.7,0.0,0.0,-220.6,103.7,0.1,-3.8,-15.1,-11.7,0,3912,0,51,
2.1767,-3.8,3.2,-0.6,0.2,-10.3,1.9,0.8,-2.1,-74.2,6.4,-38.5,-62.2,26.1,-11.7,63.9,18.2,0.0,0.1,-218.5,104.4,0.1,1.1,-12.6,-8.5,0,3918,0,52,
2.1800,-1.8,3.9,-1.8,3.1,-2.5,4.1,1.9,-0.8,-113.2,10.2,-36.4,-93.4,27.1,-10.5,70.3,14.9,0.0,0.1,-218.1,96.2,0.2,5.9,-6.5,-4.9,0,3924,0,53,
2.1833,-0.6,4.7,-3.5,3.4,1.9,4.7,2.3,-1.3,-144.3,13.8,-35.7,-121.0,28.3,-7.6,80.1,12.9,0.1,0.1,-221.0,85.1,0.2,9.1,0.9,-3.1,0,3930,0,54,
2.1867,-0.3,5.1,-4.6,1.1,1.0,3.1,1.5,-3.4,-148.3,15.2,-36.1,-131.1,28.8,-3.0,92.5,13.2,0.1,0.0,-226.6,75.8,0.1,9.8,6.9,-4.0,0,3936,0,55,
2.1900,-0.3,4.9,-3.5,-1.2,-2.4,1.1,0.1,-5.3,-120.8,13.8,-36.6,-123.9,28.3,2.5,104.8,14.6,-0.1,-0.1,-232.4,70.5,0.0,8.3,10.5,-5.9,0,3942,0,56,
2.1933,0.1,4.7,-0.1,-0.7,-3.3,0.8,-0.4,-4.9,-73.0,11.2,-36.1,-110.8,26.6,7.3,114.1,15.5,-0.2,-0.1,-235.9,69.0,-0.1,6.6,13.0,-6.0,0,3948,0,57,
2.1967,1.5,4.8,4.5,3.5,0.9,3.2,1.0,-1.6,-23.7,9.6,-34.3,-103.7,24.4,9.7,119.1,15.1,-0.2,0.0,-236.2,69.6,-0.2,6.6,16.8,-2.8,0,3954,0,58,
2.2000,3.5,5.9,8.4,9.7,8.4,7.9,4.1,3.5,11.7,10.2,-31.7,-107.3,22.8,9.0,122.0,14.8,-0.2,0.1,-233.7,69.8,-0.1,9.1,23.0,3.0,0,3960,0,59,
2.2033,5.8,8.0,10.3,15.0,14.9,12.8,7.8,8.3,27.1,12.6,-29.1,-116.3,23.0,5.8,126.9,16.1,0.0,0.1,-230.2,68.0,0.0,13.3,30.3,8.6,0,3966,0,60,
2.2067,7.7,11.1,10.6,17.6,17.2,16.5,10.8,11.6,26.5,15.5,-27.0,-121.6,25.4,2.1,136.6,19.4,0.1,0.1,-227.4,65.0,0.2,17.4,35.8,11.2,0,3972,0,61,
2.2100,8.9,14.5,10.5,17.7,15.3,18.4,12.2,13.4,19.3,17.3,-25.8,-116.6,29.0,-0.1,150.1,23.4,0.2,0.1,-226.3,62.9,0.2,19.6,37.1,10.0,0,3978,0,62,
2.2133,9.1,16.8,11.1,16.8,12.4,18.9,12.1,14.2,15.5,17.2,-25.6,-102.8,31.1,-0.3,162.5,25.8,0.1,0.0,-227.4,63.6,0.1,19.3,34.4,6.4,0,3984,0,63,
2.2167,7.9,16.6,11.8,16.3,11.5,18.6,11.1,14.2,22.3,15.3,-26.8,-88.3,28.9,0.6,168.4,25.0,0.0,0.0,-230.9,66.0,0.0,16.9,30.4,2.7,0,3990,0,64,
2.2200,5.3,13.4,11.5,16.1,13.4,17.8,9.6,13.0,41.5,12.2,-29.7,-83.0,21.8,0.4,166.0,21.3,0.0,0.0,-236.6,66.1,-0.1,13.5,28.3,1.2,0,3996,0,65,
2.2233,1.8,8.1,9.2,15.1,16.9,16.5,8.0,10.3,68.7,8.7,-33.6,-91.7,11.9,-2.2,158.1,16.2,-0.1,0.0,-243.8,60.2,-0.1,10.3,30.1,2.2,0,4002,0,66,
2.2267,-1.6,2.6,5.2,12.5,19.7,14.8,6.5,6.5,94.7,5.3,-37.6,-110.9,3.1,-6.7,150.6,12.2,0.0,0.0,-251.3,48.3,-0.1,8.2,34.6,4.6,0,4008,0,67,
2.2300,-3.6,-1.0,0.9,8.6,20.1,12.9,5.2,2.8,110.1,2.5,-40.2,-130.1,-1.5,-10.9,147.7,11.2,0.0,-0.1,-257.3,35.8,-0.1,6.9,39.1,6.5,0,4014,0,68,
2.2333,-3.5,-2.0,-2.4,4.1,17.5,10.9,4.1,0.1,111.2,0.7,-41.1,-137.6,-1.4,-12.4,150.1,14.1,0.1,-0.2,-260.6,30.5,0.0,5.8,40.3,6.5,0,4020,0,69,
2.2367,-2.1,-1.6,-4.4,-0.2,11.8,8.4,3.2,-1.4,102.9,-0.1,-40.7,-127.4,1.2,-10.8,155.2,20.1,0.1,-0.2,-260.9,36.8,0.0,3.8,37.2,4.2,0,4026,0,70,
2.2400,-0.4,-1.4,-5.8,-4.0,3.6,5.2,2.6,-2.7,96.7,-0.1,-39.9,-103.3,3.4,-7.4,159.8,26.9,0.1,-0.1,-258.9,52.5,0.0,0.8,31.0,0.6,0,4032,0,71,
2.2433,0.6,-2.2,-6.9,-7.2,-5.2,1.6,2.1,-4.3,103.3,0.1,-39.2,-77.0,4.0,-4.5,162.8,31.7,0.0,0.0,-255.4,70.2,0.0,-2.0,24.6,-2.8,0,4038,0,72,
2.2467,1.0,-2.9,-7.4,-9.0,-11.9,-1.4,1.6,-6.0,126.9,0.3,-38.2,-61.2,4.1,-3.6,165.4,32.2,0.0,0.2,-251.4,82.7,0.0,-2.2,20.6,-4.3,0,4044,0,73,
2.2500,1.7,-2.1,-5.9,-8.3,-13.9,-2.5,1.2,-6.5,163.3,0.5,-36.0,-61.3,5.3,-4.1,169.0,28.8,0.0,0.2,-247.4,87.3,0.0,1.4,19.9,-3.3,0,4050,0,74,
2.2533,3.6,1.0,-2.0,-4.7,-10.8,-1.5,0.8,-4.9,202.0,1.0,-32.6,-72.3,8.1,-4.5,173.2,24.7,0.0,0.1,-243.9,86.9,0.0,8.1,21.4,-0.5,0,4056,0,75,
2.2567,6.2,5.1,3.6,0.8,-4.8,1.0,0.5,-1.6,230.8,2.1,-28.7,-82.4,10.6,-3.7,176.3,23.5,0.1,-0.2,-241.4,85.9,0.0,15.0,22.8,2.5,0,4062,0,76,
2.2600,8.3,7.9,8.6,5.8,0.2,3.3,0.1,1.7,239.7,4.0,-25.7,-81.8,10.4,-2.4,175.8,27.4,0.0,-0.3,-240.2,86.3,0.0,18.4,22.8,4.4,0,4068,0,77,
2.2633,8.5,7.7,11.0,8.5,1.6,4.3,0.1,3.4,225.3,5.9,-23.9,-70.2,6.4,-2.2,171.0,35.0,0.0,-0.3,-240.5,86.8,0.0,16.8,21.7,4.9,0,4074,0,78,
2.2667,6.7,5.0,10.6,8.7,0.0,4.1,0.6,3.1,194.2,7.1,-23.1,-57.1,0.4,-3.8,163.4,42.6,0.0,-0.1,-241.5,85.0,0.0,11.5,21.0,5.0,0,4080,0,79,
2.2700,4.1,2.1,8.9,8.2,-1.2,3.8,2.0,2.4,162.3,6.9,-22.1,-55.5,-4.1,-6.2,156.1,46.8,0.0,0.1,-242.1,80.7,0.1,6.1,21.6,6.1,0,4086,0,80,
2.2733,2.4,1.3,8.1,9.1,1.1,4.7,4.0,2.8,147.4,5.4,-20.4,-71.5,-4.9,-7.3,152.3,46.9,0.1,0.1,-241.5,76.0,0.0,3.8,23.2,8.7,0,4092,0,81,
2.2767,2.5,2.7,9.0,12.0,7.5,7.1,5.6,5.1,158.3,3.2,-18.7,-99.1,-2.1,-5.4,154.4,45.2,0.1,0.1,-239.9,73.3,0.0,5.3,23.6,12.1,0,4098,0,82,
2.2800,3.6,4.7,10.8,15.4,14.6,9.5,5.6,7.9,187.9,1.4,-18.4,-123.0,1.3,-0.8,162.6,44.7,0.1,0.0,-238.7,72.8,-0.1,8.6,20.7,14.4,0,4104,0,83,
2.2833,4.5,4.9,11.5,16.5,18.0,10.2,3.5,9.0,216.6,0.7,-19.8,-128.5,2.4,4.1,175.9,47.0,0.1,0.0,-239.3,72.7,-0.2,10.9,14.5,14.0,0,4110,0,84,
2.2867,4.0,2.6,10.2,14.0,15.4,8.4,0.0,7.0,226.1,1.5,-22.2,-110.8,0.4,7.2,191.7,51.7,0.0,0.1,-242.0,71.0,-0.2,10.6,7.4,10.8,0,4116,0,85,
2.2900,2.5,-0.6,7.5,9.0,8.6,5.0,-3.2,2.8,212.1,3.3,-23.5,-78.9,-2.8,7.5,207.0,57.1,-0.1,0.2,-245.3,68.3,-0.1,8.5,3.0,6.6,0,4122,0,86,
2.2933,1.2,-1.9,5.7,4.6,2.5,2.5,-4.3,-1.1,185.4,5.9,-21.8,-50.1,-4.0,6.6,219.6,62.1,-0.1,0.2,-246.9,67.2,-0.1,7.4,4.0,4.1,0,4128,0,87,
2.2967,1.6,0.5,6.5,3.7,1.5,2.7,-2.4,-2.0,161.9,8.9,-17.3,-39.4,-1.3,6.4,228.4,66.3,0.0,0.2,-244.5,70.0,0.0,9.4,10.0,5.6,0,4134,0,88,
2.3000,3.7,5.7,10.0,6.9,6.5,6.2,1.2,0.8,149.1,12.0,-12.0,-50.4,4.4,7.8,233.9,69.6,0.0,0.0,-238.2,76.2,0.0,14.8,17.9,11.0,0,4140,0,89,
2.3033,6.9,11.0,14.4,12.0,14.1,11.2,4.3,5.6,142.7,14.7,-8.5,-73.8,10.5,10.3,237.6,71.2,0.1,-0.1,-230.0,82.6,0.0,21.5,23.4,18.2,0,4146,0,90,
2.3067,10.1,13.9,17.4,15.8,19.5,15.2,5.0,9.6,134.1,16.7,-8.3,-94.3,14.4,12.5,240.6,70.4,0.1,-0.2,-222.8,85.9,-0.1,26.5,24.2,23.9,0,4152,0,91,
2.3100,12.6,13.8,18.1,16.6,20.3,16.4,2.7,11.3,121.4,18.2,-10.6,-100.3,15.4,13.5,243.3,67.8,0.0,-0.2,-218.3,85.2,-0.1,28.1,20.3,25.9,0,4158,0,92,
2.3133,14.7,12.3,17.2,15.3,17.7,15.3,-0.8,11.1,112.2,19.8,-12.8,-90.2,14.8,14.2,244.9,65.4,-0.1,-0.1,-216.3,82.1,0.0,26.8,14.2,24.3,0,4164,0,93,
2.3167,17.0,11.9,16.6,14.4,15.7,13.9,-3.3,11.2,115.9,22.6,-12.8,-71.9,14.7,15.6,244.5,65.8,-0.2,0.0,-215.3,79.1,0.1,25.0,9.3,21.4,0,4170,0,94,
2.3200,19.3,13.7,17.6,15.7,17.4,14.0,-3.1,13.1,131.9,26.6,-10.1,-56.3,16.0,18.3,241.7,70.2,-0.2,-0.1,-214.4,77.0,0.2,25.1,7.9,20.3,0,4176,0,95,
2.3233,20.9,16.7,19.9,18.7,22.5,16.4,-0.3,16.7,146.3,30.6,-6.5,-51.6,17.5,21.1,236.3,76.7,-0.2,-0.2,-214.5,74.9,0.3,27.9,10.6,22.8,0,4182,0,96,
2.3267,20.9,18.7,21.4,21.0,27.2,19.3,3.1,19.5,141.2,32.4,-5.0,-59.9,17.2,22.0,228.4,81.8,-0.2,-0.3,-217.8,71.3,0.2,31.4,15.9,27.6,0,4188,0,97,
2.3300,18.9,17.6,20.5,19.9,27.6,20.2,5.0,19.0,110.0,30.2,-7.5,-78.7,13.9,19.7,218.0,82.3,-0.1,-0.3,-226.1,66.5,0.1,32.7,21.0,31.6,0,4194,0,98,
2.3333,15.5,13.6,16.6,15.2,22.4,17.7,4.3,14.6,65.9,24.1,-13.9,-103.0,8.0,14.5,205.6,78.2,0.0,-0.2,-238.3,63.0,-0.1,29.8,22.9,31.4,0,4200,0,99,
2.3367,12.1,8.2,11.2,9.1,14.4,12.3,1.7,8.0,35.2,16.4,-21.9,-126.4,2.0,8.4,192.9,72.5,0.0,-0.1,-251.4,63.6,-0.1,23.2,20.2,26.0,0,4206,0,100,
2.3400,9.8,3.8,6.4,4.7,7.8,6.6,-0.9,2.6,38.9,10.2,-28.9,-141.4,-1.8,3.4,182.5,68.7,-0.1,0.0,-261.6,68.9,-0.1,15.9,13.6,17.9,0,4212,0,101,
2.3433,8.9,1.2,3.7,3.5,5.4,3.2,-2.4,0.6,77.9,7.5,-33.4,-141.1,-2.3,0.9,176.5,68.2,-0.2,0.1,-267.4,75.8,0.0,11.1,5.7,11.3,0,4218,0,102,
2.3467,9.0,0.2,2.9,4.9,6.7,3.0,-2.5,1.7,131.8,7.8,-35.8,-122.7,-0.3,0.5,175.3,69.0,-0.3,0.1,-270.6,79.8,0.0,10.1,-0.1,9.4,0,4224,0,103,
2.3500,9.1,-0.6,2.8,6.4,8.2,4.9,-2.2,3.8,172.4,9.1,-37.4,-90.7,2.0,1.2,177.1,67.4,-0.2,0.1,-274.4,77.2,0.1,11.7,-2.4,12.7,0,4230,0,104,
2.3533,8.9,-1.7,2.2,6.2,7.1,6.7,-2.1,4.7,181.3,9.2,-39.0,-57.0,2.8,2.1,178.2,61.5,-0.1,0.1,-280.9,68.3,0.1,13.3,-1.7,18.5,0,4236,0,105,
2.3567,8.4,-2.9,1.0,4.5,3.4,7.0,-2.4,3.8,158.4,7.9,-40.1,-35.2,1.5,2.8,176.1,52.8,0.1,0.1,-289.3,56.9,0.1,12.9,-0.6,22.5,0,4242,0,106,
2.3600,8.1,-3.0,0.2,3.0,-0.5,5.6,-2.6,2.2,117.9,6.0,-39.6,-32.8,-1.3,3.5,170.2,45.1,0.2,0.1,-296.2,48.1,0.1,10.5,-1.2,22.2,0,4248,0,107,
2.3633,7.9,-1.4,0.7,3.0,-2.0,3.7,-2.5,1.5,76.4,5.0,-36.9,-46.9,-4.3,4.4,162.1,42.1,0.1,0.1,-298.6,45.0,0.0,7.8,-3.9,17.9,0,4254,0,108,
2.3667,7.7,0.8,2.4,4.6,-0.7,2.2,-2.3,2.2,43.7,4.7,-32.9,-66.8,-6.5,5.0,154.3,44.4,0.0,0.0,-296.1,47.0,-0.1,6.3,-7.0,12.2,0,4260,0,109,
2.3700,7.1,1.9,4.1,5.9,1.2,1.0,-3.0,2.9,21.0,4.0,-29.8,-81.6,-8.0,4.7,148.2,48.9,-0.1,-0.1,-291.7,50.4,-0.2,6.1,-8.1,7.7,0,4266,0,110,
2.3733,5.8,0.4,3.8,5.1,0.8,-0.6,-5.1,1.5,4.3,1.3,-29.5,-86.9,-9.0,2.7,143.6,51.5,-0.1,-0.1,-289.6,51.4,-0.3,5.9,-6.6,5.6,0,4272,0,111,
2.3767,4.1,-3.8,0.5,1.8,-3.2,-3.3,-8.2,-2.8,-11.5,-3.4,-32.5,-86.3,-10.3,-1.0,139.3,49.4,0.0,-0.1,-292.1,48.0,-0.3,4.4,-3.7,5.0,0,4278,0,112,
2.3800,2.2,-9.1,-5.3,-2.9,-9.3,-6.9,-10.7,-8.7,-29.6,-8.4,-37.1,-85.4,-12.3,-5.7,135.0,43.3,0.1,0.0,-298.0,41.8,-0.1,1.4,-2.0,4.6,0,4284,0,113,
2.3833,0.5,-13.2,-11.3,-6.7,-14.5,-10.0,-11.4,-13.6,-49.8,-11.8,-40.8,-87.0,-15.2,-10.3,131.4,36.5,0.1,0.0,-303.4,35.6,0.1,-1.7,-2.9,3.4,0,4290,0,114,
2.3867,-0.9,-15.0,-14.9,-8.2,-16.2,-11.1,-9.8,-14.9,-67.9,-12.6,-41.3,-89.3,-18.6,-13.3,129.8,32.2,0.0,-0.1,-304.4,31.7,0.2,-3.1,-5.3,2.2,0,4296,0,115,
2.3900,-1.8,-14.5,-14.6,-7.0,-13.9,-9.4,-6.8,-11.9,-77.0,-11.3,-38.4,-90.0,-22.1,-13.5,131.0,31.8,-0.1,-0.1,-299.3,30.0,0.2,-2.0,-6.5,2.1,0,4302,0,116,
2.3933,-1.8,-12.9,-10.8,-4.1,-8.9,-5.7,-4.0,-6.0,-70.7,-9.1,-33.3,-90.4,-24.4,-10.4,134.3,33.8,-0.2,-0.2,-290.0,29.3,0.1,1.1,-4.0,3.7,0,4308,0,117,
2.3967,-0.8,-11.1,-5.5,-0.7,-3.6,-1.3,-2.3,0.2,-47.6,-6.7,-28.2,-95.2,-24.3,-4.3,138.4,35.9,-0.1,-0.1,-279.9,28.5,0.0,4.4,2.1,6.8,0,4314,0,118,
2.4000,1.2,-9.2,-0.7,2.5,0.6,2.5,-1.7,4.8,-14.4,-3.5,-24.7,-107.9,-21.0,3.1,141.7,36.3,0.0,0.0,-271.9,28.7,-0.1,6.8,9.2,9.8,0,4320,0,119,
2.4033,3.7,-6.5,2.3,4.9,3.5,4.7,-1.5,7.1,16.1,1.2,-22.9,-125.7,-14.8,9.6,143.5,35.4,0.1,0.2,-266.4,31.9,0.0,7.8,13.5,11.6,0,4326,0,120,
2.4067,5.6,-3.1,3.6,6.5,5.7,5.5,-1.3,8.0,30.6,6.8,-21.7,-140.4,-7.8,13.1,143.4,35.0,0.0,0.3,-261.7,38.8,0.0,7.9,12.9,11.7,0,4332,0,121,
2.4100,5.9,0.4,4.0,7.1,8.1,5.2,-0.9,8.4,22.9,11.2,-20.6,-144.2,-2.5,12.9,141.8,36.2,-0.1,0.3,-255.7,46.9,0.1,7.5,8.1,10.2,0,4338,0,122,
2.4133,4.5,2.3,4.4,7.1,10.8,4.2,-1.0,9.0,-1.7,12.2,-19.3,-135.2,-1.2,10.1,138.9,38.7,-0.2,0.1,-247.9,51.4,0.0,6.7,1.9,8.0,0,4344,0,123,
2.4167,2.3,1.9,5.5,7.0,13.2,2.9,-1.8,9.9,-27.6,9.0,-18.3,-117.8,-3.7,6.8,135.8,41.0,-0.2,0.0,-239.9,49.2,0.0,5.7,-2.4,5.9,0,4350,0,124,
2.4200,0.5,-0.2,7.1,7.6,14.2,1.6,-3.2,10.8,-37.9,3.7,-17.6,-98.2,-7.9,5.0,133.8,41.6,-0.1,-0.1,-234.5,42.1,0.0,4.8,-3.4,4.5,0,4356,0,125,
2.4233,0.3,-2.1,9.1,9.0,13.1,1.0,-4.4,11.8,-25.4,0.0,-17.1,-79.2,-10.6,5.3,133.9,40.2,0.1,-0.1,-233.7,36.5,0.0,4.6,-1.9,4.2,0,4362,0,126,
2.4267,1.5,-2.3,10.9,10.7,10.0,1.2,-4.7,12.7,1.1,0.4,-16.4,-60.3,-10.2,6.7,135.7,38.2,0.2,0.0,-237.1,39.0,0.0,5.4,0.1,4.6,0,4368,0,127,
2.4300,2.9,-0.9,11.9,11.7,5.7,2.2,-4.1,13.4,21.1,4.6,-15.7,-41.9,-7.3,7.1,137.2,37.0,0.3,0.1,-242.7,50.8,0.0,6.9,1.0,5.2,0,4374,0,128,
2.4333,3.3,0.6,11.6,11.3,2.0,3.3,-3.0,13.2,16.8,9.2,-15.9,-28.2,-4.6,5.3,136.3,36.9,0.3,0.1,-247.5,66.5,-0.1,7.8,0.8,5.1,0,4380,0,129,
2.4367,2.6,0.6,10.2,9.7,0.0,3.9,-2.1,12.0,-13.3,11.1,-17.7,-25.5,-4.3,1.7,131.9,37.3,0.2,0.1,-249.2,77.3,-0.1,7.4,0.2,4.4,0,4386,0,130,
2.4400,1.5,-0.8,8.8,7.9,0.2,4.2,-1.9,10.5,-50.7,9.6,-20.3,-35.3,-6.1,-1.7,124.9,37.3,0.1,0.0,-246.3,77.7,-0.1,5.9,-0.1,3.7,0,4392,0,131,
2.4433,1.6,-1.9,8.8,7.4,1.8,4.3,-2.1,9.8,-70.2,7.1,-21.6,-51.8,-7.5,-2.6,117.6,36.8,0.0,0.0,-239.1,69.3,0.0,4.7,-0.4,4.1,0,4398,0,132,
2.4467,3.4,-0.6,11.1,8.9,3.5,4.6,-2.5,11.1,-58.8,6.6,-20.0,-65.2,-5.9,-0.5,112.1,36.7,-0.1,-0.1,-229.6,59.2,0.0,5.1,-1.5,5.7,0,4404,0,133,
2.4500,6.2,3.3,14.7,11.4,4.2,4.9,-2.7,14.1,-27.3,9.1,-16.5,-69.6,-1.2,3.4,109.2,37.6,-0.1,-0.1,-221.5,53.7,0.0,7.2,-4.1,7.9,0,4410,0,134,
2.4533,8.2,7.5,17.3,13.4,4.2,4.6,-2.8,17.1,-2.7,12.0,-14.0,-69.2,3.7,6.5,108.2,39.0,-0.1,-0.1,-218.9,53.7,0.0,9.3,-7.5,8.9,0,4416,0,135,
2.4567,7.9,9.1,16.5,13.4,4.3,3.2,-2.7,17.8,-7.3,11.7,-15.6,-73.8,4.8,7.0,108.0,39.0,-0.1,-0.1,-223.6,55.2,0.0,9.5,-10.3,7.8,0,4422,0,136,
2.4600,5.3,6.9,12.3,11.5,5.7,1.2,-2.7,15.7,-40.3,6.5,-21.3,-89.9,0.5,5.0,107.5,36.0,0.0,-0.1,-233.3,53.5,0.0,7.1,-11.1,5.3,0,4428,0,137,
2.4633,2.1,2.7,7.2,9.5,8.8,-0.4,-2.4,12.0,-78.4,-1.4,-27.0,-113.3,-6.9,2.3,106.2,29.5,0.0,-0.1,-242.1,48.8,-0.1,3.3,-10.0,3.3,0,4434,0,138,
2.4667,0.0,-0.2,4.7,9.4,13.1,-0.1,-1.7,9.5,-96.4,-7.4,-28.1,-131.6,-13.1,1.1,103.5,21.3,0.0,-0.1,-243.9,45.6,-0.1,0.6,-7.6,3.8,0,4440,0,139,
2.4700,0.2,0.8,6.5,11.9,16.9,2.1,-0.6,10.3,-89.7,-8.3,-23.4,-134.3,-15.2,1.8,98.9,14.1,0.0,0.0,-237.5,47.6,-0.2,0.5,-5.3,6.9,0,4446,0,140,
2.4733,1.9,4.9,11.0,15.6,19.0,5.4,0.8,14.2,-79.0,-5.0,-17.3,-121.6,-13.5,3.2,92.6,9.6,0.0,0.0,-228.3,53.6,-0.2,2.3,-4.0,10.7,0,4452,0,141,
2.4767,3.9,8.9,14.3,18.0,18.4,7.9,2.1,18.6,-91.6,-1.7,-17.0,-103.9,-11.5,2.9,85.8,7.8,0.0,0.1,-224.4,57.5,-0.2,3.5,-3.9,12.3,0,4458,0,142,
2.4800,4.8,10.1,13.4,16.9,15.4,8.4,3.2,20.9,-133.6,-2.6,-26.1,-92.3,-12.1,-0.1,80.2,7.0,0.1,0.1,-230.3,54.2,-0.1,1.7,-5.1,9.7,0,4464,0,143,
2.4833,4.5,7.8,8.3,13.0,11.1,7.0,4.1,20.0,-180.3,-7.8,-41.1,-90.2,-15.0,-4.7,76.7,5.8,0.1,0.1,-243.0,44.6,0.0,-3.0,-7.7,4.0,0,4470,0,144,
2.4867,3.7,4.6,2.8,8.7,7.5,5.0,4.7,17.6,-194.8,-13.2,-52.5,-92.2,-16.9,-8.3,74.4,4.0,0.1,0.1,-253.4,36.2,0.1,-8.1,-11.1,-2.3,0,4476,0,145,
2.4900,3.3,3.4,0.8,7.0,6.0,3.8,4.4,16.0,-160.9,-13.8,-51.9,-90.9,-14.8,-8.3,72.1,2.7,0.0,0.0,-253.7,36.5,0.1,-10.7,-14.3,-6.3,0,4482,0,146,
2.4933,3.5,5.1,3.7,8.8,7.2,3.9,3.1,16.2,-101.2,-7.5,-39.0,-85.9,-8.3,-4.4,69.2,2.7,-0.1,-0.1,-243.5,45.5,0.0,-9.0,-15.6,-6.7,0,4488,0,147,
2.4967,4.1,8.3,9.3,12.3,10.3,4.7,0.9,17.1,-61.2,2.6,-21.6,-84.0,-0.5,1.4,67.4,4.0,-0.2,-0.1,-230.8,55.2,0.0,-4.4,-13.8,-4.1,0,4494,0,148,
2.5000,4.7,10.3,13.4,14.4,13.8,5.5,-1.8,16.8,-72.4,11.0,-10.5,-92.2,4.6,6.6,69.0,5.3,-0.1,-0.2,-225.3,55.1,0.0,0.5,-9.2,-0.1,0,4500,0,149,
2.5033,5.2,10.0,13.2,13.2,16.1,6.0,-3.7,14.2,-124.3,13.6,-11.1,-109.6,5.4,9.5,74.8,5.4,0.0,-0.1,-231.2,42.4,0.1,3.1,-3.7,4.1,0,4506,0,150,
2.5067,6.0,8.4,9.4,9.3,16.5,6.5,-4.2,10.2,-172.8,11.1,-20.1,-126.1,3.6,10.7,82.3,3.9,0.1,-0.1,-243.9,24.7,0.2,3.2,0.1,7.8,0,4512,0,151,
2.5100,7.2,7.5,5.1,5.6,15.5,7.2,-3.3,6.8,-176.3,7.4,-28.8,-129.9,2.2,11.5,87.0,2.0,0.1,0.0,-254.6,15.3,0.2,2.3,0.4,10.9,0,4518,0,152,
2.5133,8.3,8.2,3.3,4.3,14.0,8.0,-1.7,5.5,-130.1,6.6,-30.7,-116.6,2.8,13.1,85.2,0.7,0.1,0.0,-257.1,22.4,0.2,2.5,-2.8,13.0,0,4524,0,153,
2.5167,8.7,9.4,4.2,5.5,12.8,8.2,-0.6,5.6,-69.0,9.5,-25.8,-93.2,4.3,14.9,77.9,1.0,0.1,0.0,-252.4,43.1,0.0,4.6,-7.7,13.6,0,4530,0,154,
2.5200,7.9,9.5,5.9,7.3,11.8,6.8,-0.4,5.1,-36.5,13.8,-19.8,-72.6,4.4,15.4,69.6,2.4,0.0,0.0,-246.7,65.4,-0.2,7.4,-11.8,12.0,0,4536,0,155,
2.5233,5.9,7.6,5.8,7.5,10.4,4.0,-1.1,2.8,-48.3,16.3,-18.3,-64.0,1.8,13.6,65.7,3.8,0.1,0.0,-245.2,78.1,-0.2,9.1,-13.1,8.8,0,4542,0,156,
2.5267,3.7,4.9,3.5,5.6,8.3,1.0,-1.8,-0.7,-82.4,15.8,-22.1,-66.5,-2.4,10.0,67.9,4.4,0.1,0.1,-248.3,78.4,-0.1,8.7,-10.9,5.1,0,4548,0,157,
2.5300,2.0,3.5,0.8,3.2,5.8,-0.8,-1.5,-3.1,-101.2,13.9,-26.7,-71.1,-5.1,6.9,73.4,3.8,0.2,0.2,-251.9,72.4,0.0,7.1,-6.1,2.8,0,4554,0,158,
2.5333,1.5,4.8,0.1,2.4,3.7,-0.2,-0.4,-2.7,-84.3,13.4,-27.0,-68.8,-4.3,6.4,77.0,2.7,0.2,0.2,-251.9,67.9,0.2,6.4,-0.8,3.2,0,4560,0,159,
2.5367,2.1,8.3,2.6,4.4,2.8,2.6,0.9,0.8,-43.9,15.8,-21.4,-57.8,0.2,8.8,75.7,1.9,0.1,0.2,-248.3,66.9,0.2,8.6,3.1,6.4,0,4566,0,160,
2.5400,3.2,11.8,7.1,8.3,3.4,6.2,1.3,5.3,-10.3,20.0,-13.1,-45.4,6.1,12.4,70.5,1.9,0.0,0.1,-244.3,64.2,0.1,13.8,4.4,11.6,0,4572,0,161,
2.5433,4.3,13.7,11.2,12.2,5.6,9.3,0.6,8.4,-5.3,23.9,-7.3,-42.1,10.8,14.9,65.7,2.5,0.0,0.0,-243.1,53.8,0.0,20.4,3.3,16.8,0,4578,0,162,
2.5467,5.0,13.8,13.2,14.5,8.8,10.6,-1.1,9.2,-25.6,25.8,-6.6,-53.8,12.6,14.9,64.7,2.6,0.0,0.0,-244.6,36.1,-0.1,25.7,1.2,20.2,0,4584,0,163,
2.5500,5.5,13.2,13.0,15.2,12.5,10.1,-2.7,8.5,-49.5,26.0,-9.9,-75.8,11.7,12.9,67.6,0.7,0.1,0.0,-245.5,19.4,-0.2,27.6,0.1,20.2,0,4590,0,164,
2.5533,5.9,13.1,12.0,15.5,15.4,8.3,-3.6,7.8,-58.2,25.6,-13.2,-96.0,9.5,11.1,71.5,-4.0,0.1,0.0,-242.6,14.1,-0.1,25.9,0.3,17.1,0,4596,0,165,
2.5567,6.2,13.8,11.4,16.1,16.3,5.9,-4.0,8.3,-50.1,25.7,-13.9,-101.9,7.6,10.8,73.1,-10.8,0.1,0.0,-235.5,24.9,0.0,21.9,1.0,12.3,0,4602,0,166,
2.5600,6.3,14.2,11.5,16.3,14.2,3.7,-4.3,9.4,-38.5,25.9,-12.1,-89.4,7.1,12.2,71.7,-17.6,0.0,0.0,-227.2,46.7,0.1,17.6,0.1,8.0,0,4608,0,167,
2.5633,6.1,13.2,11.0,15.0,8.7,1.5,-5.6,9.6,-36.7,25.3,-10.6,-65.4,8.1,13.8,69.4,-21.4,0.0,0.0,-221.9,67.6,0.1,14.1,-3.4,5.4,0,4614,0,168,
2.5667,5.5,10.1,8.6,10.9,1.1,-1.0,-8.0,8.0,-45.2,22.8,-12.1,-43.1,9.4,13.7,69.4,-20.4,0.0,-0.1,-221.6,77.2,0.1,11.2,-8.9,4.0,0,4620,0,169,
2.5700,4.0,5.6,4.0,4.4,-6.8,-4.5,-10.9,4.3,-53.3,18.6,-17.3,-33.6,9.3,11.4,73.3,-15.1,0.1,-0.1,-226.0,72.4,0.0,7.8,-14.0,2.1,0,4626,0,170,
2.5733,1.7,0.7,-1.7,-2.9,-13.1,-9.0,-13.4,-0.2,-50.6,13.6,-24.6,-39.3,6.3,7.5,79.8,-8.3,0.1,-0.1,-232.9,57.7,0.0,3.1,-16.4,-1.8,0,4632,0,171,
2.5767,-1.5,-3.5,-6.7,-8.8,-16.6,-13.9,-14.8,-4.2,-37.2,8.7,-31.5,-55.0,0.5,3.3,86.2,-3.4,0.1,-0.1,-240.0,40.7,0.0,-2.8,-15.3,-7.5,0,4638,0,172,
2.5800,-4.8,-6.1,-9.7,-12.0,-17.5,-18.3,-15.0,-6.8,-23.1,4.4,-36.4,-73.2,-6.7,0.2,89.8,-2.3,0.0,-0.1,-246.2,27.1,0.1,-8.4,-12.2,-12.6,0,4644,0,173,
2.5833,-7.3,-7.0,-10.2,-12.3,-16.4,-20.8,-14.5,-7.8,-18.9,1.2,-38.7,-90.0,-12.7,-1.3,90.1,-4.0,0.0,-0.1,-251.0,18.6,0.1,-12.0,-9.5,-14.8,0,4650,0,174,
2.5867,-8.0,-6.4,-9.0,-10.7,-14.1,-20.8,-14.1,-7.6,-26.5,-0.4,-39.2,-105.9,-15.2,-1.5,88.2,-5.8,0.1,-0.1,-254.1,14.7,0.1,-12.6,-8.6,-13.2,0,4656,0,175,
2.5900,-6.6,-4.7,-7.0,-8.2,-11.4,-18.6,-13.9,-6.3,-38.7,0.3,-38.3,-122.0,-13.8,-0.9,85.7,-5.3,0.1,0.0,-255.3,14.7,0.2,-10.4,-9.4,-9.2,0,4662,0,176,
2.5933,-3.6,-2.5,-4.4,-5.3,-8.4,-15.3,-13.7,-3.9,-47.2,3.2,-35.7,-135.6,-9.6,0.3,83.4,-2.5,0.1,0.2,-254.5,18.7,0.2,-6.4,-10.2,-5.4,0,4668,0,177,
2.5967,0.0,-0.1,-1.1,-1.7,-4.9,-12.0,-13.1,-0.5,-50.5,7.3,-31.0,-140.8,-4.8,2.0,81.4,0.0,0.1,0.3,-251.9,26.3,0.1,-1.8,-9.2,-3.6,0,4674,0,178,
2.6000,2.9,2.2,3.3,2.6,-0.9,-9.2,-11.8,3.6,-55.4,11.0,-24.5,-132.8,-0.8,4.1,79.2,-0.6,0.0,0.4,-247.8,35.4,0.1,2.4,-5.9,-3.4,0,4680,0,179,
2.6033,4.6,4.6,7.9,7.4,3.5,-6.7,-9.8,7.7,-69.6,12.8,-17.8,-112.6,1.9,6.6,76.8,-4.9,0.0,0.3,-242.0,42.9,0.0,5.8,-1.0,-3.3,0,4686,0,180,
2.6067,5.0,7.0,11.6,11.6,7.3,-4.4,-7.7,11.0,-94.4,12.5,-13.2,-87.4,3.7,9.0,74.7,-10.7,0.0,0.2,-234.7,46.2,0.0,8.0,3.6,-1.7,0,4692,0,181,
2.6100,4.6,9.1,13.0,13.9,9.2,-2.1,-6.1,12.9,-121.3,11.3,-12.2,-65.4,5.0,10.6,73.4,-14.2,0.1,0.0,-226.4,45.4,0.0,8.7,6.9,1.1,0,4698,0,182,
2.6133,3.9,10.1,11.9,13.8,8.1,-0.2,-4.9,13.5,-137.8,10.4,-14.7,-51.5,5.6,10.9,72.7,-13.4,0.2,-0.1,-218.5,43.4,0.0,8.0,8.4,3.7,0,4704,0,183,
2.6167,3.1,9.7,9.6,11.8,4.4,1.2,-4.1,13.2,-136.1,10.6,-18.3,-45.7,5.3,9.4,71.4,-9.2,0.2,-0.1,-212.7,43.2,0.1,6.4,9.2,5.3,0,4710,0,184,
2.6200,2.5,8.2,7.8,9.2,-0.1,2.3,-3.3,12.8,-118.6,11.8,-20.4,-45.9,4.2,6.7,68.5,-4.9,0.1,-0.1,-210.1,46.1,0.1,4.7,10.3,5.9,0,4716,0,185,
2.6233,2.3,6.3,7.8,7.2,-2.8,3.3,-2.1,12.6,-96.5,13.1,-19.8,-51.3,2.8,4.2,64.0,-3.6,-0.1,0.0,-210.6,50.1,0.1,4.2,12.3,6.7,0,4722,0,186,
2.6267,2.6,5.1,9.0,6.1,-2.3,4.4,-0.9,12.3,-81.7,13.9,-17.5,-61.8,1.6,3.5,59.4,-5.3,-0.2,0.1,-212.8,51.9,0.0,5.1,14.6,7.9,0,4728,0,187,
2.6300,3.4,4.7,9.6,5.1,0.3,4.6,-0.1,11.1,-80.0,13.8,-16.1,-76.5,0.3,5.2,56.8,-7.7,-0.2,0.1,-215.5,48.8,0.0,6.4,15.7,8.4,0,4734,0,188,
2.6333,3.9,4.2,7.4,2.9,2.2,2.9,-0.3,8.4,-89.2,12.3,-18.0,-92.2,-1.5,8.4,57.4,-7.9,-0.2,0.0,-218.6,41.0,0.0,6.4,14.1,6.5,0,4740,0,189,
2.6367,3.2,2.4,2.0,-1.2,0.7,-1.1,-1.7,4.1,-103.7,9.2,-23.5,-105.9,-4.6,10.7,60.6,-5.5,-0.1,0.0,-222.8,31.0,0.0,4.0,9.8,1.6,0,4746,0,190,
2.6400,0.9,-0.9,-5.1,-6.1,-4.3,-6.5,-3.9,-1.0,-120.2,4.5,-30.7,-117.2,-8.3,9.9,64.7,-2.4,-0.1,0.0,-228.8,22.1,0.0,-0.5,4.1,-4.1,0,4752,0,191,
2.6433,-2.4,-4.7,-11.1,-9.9,-9.9,-10.9,-6.1,-5.4,-137.1,-0.7,-36.7,-128.2,-11.5,6.0,67.8,-1.6,-0.1,0.0,-235.7,16.6,-0.1,-5.0,-0.5,-7.5,0,4758,0,192,
2.6467,-5.2,-6.9,-13.6,-10.5,-12.3,-11.9,-7.3,-7.5,-150.7,-4.4,-39.3,-139.1,-12.5,1.4,69.4,-4.4,-0.1,0.1,-240.9,15.2,-0.1,-6.6,-2.2,-6.1,0,4764,0,193,
2.6500,-5.8,-6.0,-11.6,-7.4,-9.6,-9.0,-6.6,-6.3,-151.5,-4.9,-37.8,-145.1,-10.8,-0.7,70.3,-9.1,-0.2,0.1,-242.0,17.5,-0.1,-4.1,-0.9,-0.6,0,4770,0,194,
2.6533,-3.8,-2.1,-6.7,-2.2,-3.4,-3.7,-4.2,-2.5,-128.8,-1.7,-33.2,-138.2,-7.2,1.4,71.0,-13.1,-0.2,0.1,-238.4,22.1,0.0,1.6,2.2,5.7,0,4776,0,195,
2.6567,-0.3,2.7,-1.5,2.5,2.1,0.9,-1.0,2.2,-81.5,3.3,-27.6,-114.6,-3.6,6.2,71.2,-14.6,-0.2,0.1,-232.4,26.6,0.1,7.3,5.3,9.0,0,4782,0,196,
2.6600,2.6,6.1,1.6,4.3,3.5,2.5,1.6,5.6,-24.6,7.6,-22.6,-80.2,-1.3,10.3,69.7,-13.9,-0.2,0.1,-227.6,28.0,0.1,9.9,7.2,7.8,0,4788,0,197,
2.6633,3.1,6.9,2.0,2.6,0.2,0.6,2.6,6.3,16.2,9.3,-19.6,-49.9,-1.0,10.8,65.1,-13.0,-0.2,0.1,-226.6,23.4,0.1,8.2,7.8,3.8,0,4794,0,198,
2.6667,1.1,5.5,0.4,-1.0,-5.0,-2.8,1.8,4.4,20.9,8.6,-18.7,-38.3,-1.7,7.7,57.7,-12.9,-0.2,0.2,-229.4,11.5,0.0,3.8,7.7,0.3,0,4800,0,199,
2.6700,-1.7,3.9,-1.4,-4.1,-8.3,-5.1,0.1,1.5,-9.5,7.3,-19.8,-49.9,-2.1,3.5,49.5,-13.3,-0.1,0.2,-233.3,-5.3,-0.1,0.0,7.5,-0.2,0,4806,0,200,
2.6733,-3.6,3.4,-2.1,-4.8,-7.3,-4.9,-1.4,-0.5,-53.1,7.1,-21.7,-76.0,-1.6,1.3,43.3,-12.5,0.0,0.2,-235.2,-20.5,-0.1,-0.8,7.5,2.3,0,4812,0,201,
2.6767,-3.5,3.9,-1.1,-2.5,-3.0,-2.3,-1.9,-0.6,-82.4,8.5,-23.2,-100.8,-0.2,2.1,40.4,-9.8,0.1,0.1,-233.6,-26.9,-0.1,1.9,7.8,5.5,0,4818,0,202,
2.6800,-2.1,4.6,0.9,1.5,2.1,0.8,-1.5,1.0,-82.8,10.6,-23.4,-111.9,1.2,3.9,40.6,-6.2,0.2,0.0,-229.3,-20.1,0.0,6.1,8.4,7.0,0,4824,0,203,
2.6833,-1.1,4.2,3.2,5.5,4.8,2.3,-0.7,2.9,-60.7,12.3,-21.7,-107.2,2.1,4.0,42.1,-3.7,0.1,-0.1,-224.3,-2.1,0.0,9.2,8.9,6.1,0,4830,0,204,
2.6867,-1.3,2.7,5.0,7.8,4.0,1.6,-0.3,4.0,-35.1,12.9,-18.9,-93.4,2.4,1.3,43.0,-3.5,0.0,-0.1,-220.5,19.1,0.1,9.7,8.5,3.5,0,4836,0,205,
2.6900,-2.2,0.9,6.0,8.0,0.5,-1.0,-0.8,3.8,-23.0,12.8,-16.3,-79.9,2.4,-2.5,41.8,-5.4,-0.1,-0.1,-218.4,33.9,0.1,8.2,6.8,1.0,0,4842,0,206,
2.6933,-2.6,0.3,6.2,6.6,-3.4,-3.8,-2.2,2.5,-28.5,12.7,-15.3,-73.4,2.7,-4.4,38.3,-7.6,-0.1,0.0,-217.5,36.2,0.1,6.5,4.7,0.0,0,4848,0,207,
2.6967,-1.4,1.4,6.0,5.1,-5.4,-5.3,-4.1,1.0,-43.7,13.1,-16.6,-76.3,3.6,-2.7,32.7,-9.3,0.0,0.1,-217.1,27.4,0.1,6.1,3.5,0.5,0,4854,0,208,
2.7000,1.3,4.0,5.7,4.6,-4.1,-4.8,-5.7,-0.1,-55.7,14.1,-19.6,-87.6,4.9,1.7,25.9,-10.8,0.0,0.1,-216.6,15.0,0.1,7.3,4.8,2.0,0,4860,0,209,
2.7033,4.0,6.8,5.6,5.7,-0.1,-2.7,-6.6,-0.5,-53.3,15.4,-22.9,-103.4,6.0,5.9,19.1,-14.0,0.0,0.1,-215.8,8.0,0.1,9.0,8.5,3.5,0,4866,0,210,
2.7067,5.2,8.6,5.9,7.7,4.1,-0.2,-6.4,-0.5,-30.9,16.9,-25.1,-117.8,6.4,7.4,13.5,-19.7,-0.1,0.0,-214.6,11.5,0.2,9.8,12.2,4.2,0,4872,0,211,
2.7100,4.1,8.3,5.9,9.0,5.7,1.3,-5.4,-0.3,10.1,17.9,-26.0,-124.7,5.5,5.2,9.9,-27.0,-0.1,-0.1,-213.4,23.9,0.2,8.7,13.4,3.6,0,4878,0,212,
2.7133,1.4,5.6,5.0,8.5,2.8,0.9,-3.9,-0.5,59.7,17.6,-26.1,-120.9,3.1,0.7,7.6,-33.6,-0.2,-0.2,-213.1,38.4,0.2,5.7,11.0,1.8,0,4884,0,213,
2.7167,-1.5,1.2,2.7,5.9,-3.6,-1.4,-2.6,-1.6,102.0,14.9,-26.3,-108.4,-0.6,-4.0,4.7,-37.4,-0.2,-0.2,-214.5,47.9,0.2,1.9,6.8,-0.4,0,4890,0,214,
2.7200,-3.8,-3.5,-0.4,2.3,-10.2,-4.4,-1.8,-3.3,121.7,10.1,-27.0,-93.4,-4.8,-7.3,-1.0,-38.8,-0.1,-0.1,-217.5,49.4,0.1,-1.5,4.0,-1.8,0,4896,0,215,
2.7233,-5.1,-6.7,-3.3,-0.6,-13.8,-6.6,-1.8,-5.1,114.3,5.2,-27.8,-81.3,-8.3,-9.3,-10.0,-40.2,-0.1,-0.1,-220.7,45.7,-0.1,-3.1,4.5,-1.3,0,4902,0,216,
2.7267,-5.9,-7.3,-4.7,-1.5,-13.1,-7.0,-2.2,-5.9,90.6,2.1,-27.9,-72.8,-10.2,-10.6,-21.0,-43.8,-0.1,-0.1,-222.3,42.7,-0.2,-2.4,7.2,1.4,0,4908,0,217,
2.7300,-6.5,-5.4,-4.3,-0.6,-9.9,-5.7,-2.7,-5.0,69.6,1.8,-27.2,-65.2,-9.8,-12.0,-30.7,-49.6,0.0,-0.2,-221.6,44.7,-0.2,0.2,8.7,4.9,0,4914,0,218,
2.7333,-7.0,-2.6,-2.9,1.1,-6.9,-3.7,-3.0,-2.7,64.3,2.5,-26.7,-58.0,-7.8,-13.5,-36.3,-54.7,0.0,-0.2,-220.5,51.0,-0.2,3.0,6.7,7.2,0,4920,0,219,
2.7367,-6.9,-0.7,-2.2,2.2,-6.2,-2.6,-3.0,0.2,71.6,1.5,-27.9,-55.8,-5.3,-14.7,-36.9,-55.5,0.0,-0.1,-222.0,56.2,-0.1,4.5,1.7,6.8,0,4926,0,220,
2.7400,-5.6,-0.6,-2.8,2.1,-7.3,-2.8,-2.6,2.1,75.8,-3.0,-31.5,-66.5,-3.3,-14.6,-33.6,-50.9,0.1,0.0,-227.5,54.8,0.0,3.6,-3.2,4.0,0,4932,0,221,
2.7433,-2.9,-1.5,-4.4,1.2,-8.2,-4.0,-2.1,2.6,64.1,-9.5,-36.6,-92.9,-2.0,-12.7,-28.5,-43.8,0.0,0.1,-235.4,46.1,0.0,0.9,-5.3,0.7,0,4938,0,222,
2.7467,0.5,-1.8,-5.7,0.6,-7.3,-5.0,-1.8,1.8,40.3,-14.0,-40.8,-127.6,-0.7,-8.9,-23.3,-39.0,0.0,0.1,-241.4,35.5,0.1,-1.7,-4.4,-0.6,0,4944,0,223,
2.7500,3.9,-0.3,-5.4,1.2,-4.7,-4.7,-1.8,1.1,22.6,-12.5,-41.8,-154.4,1.7,-3.7,-18.3,-39.9,0.0,0.1,-241.8,31.6,0.0,-2.0,-2.9,1.2,0,4950,0,224,
2.7533,6.3,2.9,-3.3,2.7,-2.2,-2.9,-1.9,1.7,27.2,-4.4,-38.6,-158.5,5.6,1.7,-13.3,-46.1,0.0,0.1,-237.1,39.8,0.0,0.8,-3.3,5.6,0,4956,0,225,
2.7567,7.7,6.3,-0.3,4.7,-1.0,-0.1,-1.7,4.2,51.5,7.2,-33.0,-136.9,10.3,5.8,-8.2,-53.4,0.0,0.1,-231.4,57.7,0.0,6.0,-5.6,10.5,0,4962,0,226,
2.7600,8.2,8.7,2.4,6.1,-1.1,2.6,-0.9,7.9,72.4,17.0,-27.5,-100.6,14.4,7.9,-3.3,-57.1,0.0,0.1,-229.5,76.0,0.0,11.5,-7.8,13.6,0,4968,0,227,
2.7633,8.5,9.3,4.1,6.4,-1.3,4.1,0.2,11.5,63.7,21.5,-24.9,-68.3,16.8,8.1,0.5,-55.5,0.1,0.1,-233.0,84.2,0.0,14.8,-7.9,13.9,0,4974,0,228,
