# Mains_Frequency_(Hz) =,60,,,,,,,,,,,,,,,,,,,,,,,,,,,
# Sample_Frequency_(Hz) =,300,,,,,,,,,,,,,,,,,,,,,,,,,,,
# Filter_Delay_(ms) =,43.3,,,,,,,,,,,,,,,,,,,,,,,,,,,
# Sensor_Data_Units =,uV,,,,,,,,,,,,,,,,,,,,,,,,,,,
# Headset_Name =,DSI-24 SN:4618,,,,,,,,,,,,,,,,,,,,,,,,,,,
# Data_Logger =,DSI-Streamer-v.1.08.18,,,,,,,,,,,,,,,,,,,,,,,,,,,
# Date =,5/25/2018,,,,,,,,,,,,,,,,,,,,,,,,,,,
# Time =,17:10:40,,,,,,,,,,,,,,,,,,,,,,,,,,,
# Patient_ID =,X F 01-MAY-1999 X,,,,,,,,,,,,,,,,,,,,,,,,,,,
# Record_ID =,Startdate 25-MAY-2018 EEG_XX X 4618,,,,,,,,,,,,,,,,,,,,,,,,,,,
# Filter =,Non-Filtered,,,,,,,,,,,,,,,,,,,,,,,,,,,
# Comments =,,,,,,,,,,,,,,,,,,,,,,,,,,,,
# Reference location:,Pz,,,,,,,,,,,,,,,,,,,,,,,,,,,
# Trigger Source,Wireless,,,,,,,,,,,,,,,,,,,,,,,,,,,
# Channel_Number =,ch_1,ch_2,ch_3,ch_4,ch_5,ch_6,ch_7,ch_8,ch_9,ch_10,ch_11,ch_12,ch_13,ch_14,ch_15,ch_16,ch_17,ch_18,ch_19,ch_20,ch_21,ch_22,ch_23,ch_24,Trigger,Time_Offset,ADC_Status,ADC_Sequence,Comments
Time,P3,C3,F3,Fz,F4,C4,P4,Cz,CM,A1,Fp1,Fp2,T3,T5,O1,O2,X3,X2,F7,F8,X1,A2,T6,T4,Trigger,Time_Offset,ADC_Status,ADC_Sequence,Comments
0.0033,-76.5,-171.9,-322.5,-116.4,-76.5,-0.9,-9.0,-19.8,815.1,-84.6,1221.9,5594.1,-206.4,1424.7,-1825.2,-16.8,0.9,2.1,3854.7,-4729.2,-16.8,113.4,469.2,-201.6,0,6,0,168,Start Data Acquisition
0.0067,-81.0,-179.7,-328.5,-122.1,-77.1,-0.6,-12.3,-20.4,222.3,-89.4,1210.2,5581.8,-212.1,1416.6,-1857.6,-25.5,0.9,2.4,3837.9,-4744.8,-17.1,118.8,487.5,-190.2,0,12,0,169,
0.0100,-90.0,-186.0,-335.7,-126.6,-83.4,-0.9,-9.9,-28.2,592.8,-95.1,1203.3,5584.2,-228.0,1396.2,-1839.0,-7.5,0.9,2.4,3837.3,-4739.7,-17.4,124.2,497.1,-183.9,0,18,0,170,
0.0133,-88.2,-190.8,-337.8,-130.2,-88.2,-3.9,-9.6,-30.3,1111.5,-96.0,1201.2,5565.3,-227.1,1405.2,-1807.2,9.0,0.9,2.7,3831.6,-4741.5,-17.1,123.9,497.1,-188.4,0,24,0,171,
0.0167,-87.0,-189.3,-341.1,-129.3,-82.2,-8.4,-9.3,-30.0,1259.7,-93.9,1193.1,5550.9,-226.2,1409.1,-1790.1,-2.4,1.5,2.4,3810.3,-4749.0,-17.1,109.5,477.9,-205.8,0,30,0,172,
0.0200,-83.7,-185.4,-331.5,-128.1,-82.5,-18.6,-15.3,-27.6,666.9,-90.0,1196.7,5527.2,-216.6,1409.4,-1813.2,-25.2,1.2,2.4,3808.8,-4756.8,-17.1,109.8,440.7,-219.0,0,36,0,173,
0.0233,-81.6,-183.9,-332.1,-123.6,-81.6,-7.5,-11.1,-16.8,444.6,-86.7,1192.2,5547.9,-221.4,1405.8,-1816.5,-32.1,1.2,2.4,3792.6,-4742.7,-17.1,108.3,449.4,-207.0,0,42,0,174,
0.0267,-78.0,-177.3,-322.8,-120.3,-73.2,-2.1,-6.9,-16.5,444.6,-91.8,1192.2,5573.1,-208.5,1417.2,-1810.2,-8.1,1.2,2.7,3818.1,-4755.0,-16.8,124.8,459.9,-194.1,0,48,0,175,
0.0300,-76.8,-183.6,-334.5,-127.8,-84.9,-10.2,-6.9,-24.9,1185.6,-89.7,1184.7,5541.0,-213.0,1422.3,-1774.8,15.9,1.2,2.4,3798.6,-4761.3,-17.1,114.9,475.8,-200.1,0,54,0,176,
0.0333,-74.4,-175.8,-328.8,-122.1,-68.4,0.3,2.7,-19.2,1185.6,-84.9,1187.7,5541.9,-212.4,1413.3,-1789.5,10.5,1.5,2.7,3795.6,-4803.3,-17.1,140.4,495.9,-180.6,0,60,0,177,
0.0367,-71.4,-171.6,-326.4,-121.8,-56.7,7.2,0.0,-18.0,815.1,-78.3,1182.6,5497.5,-202.5,1428.0,-1801.2,-7.2,0.9,2.7,3785.4,-4830.6,-16.8,142.5,483.9,-191.1,0,66,0,178,
0.0400,-75.0,-173.1,-330.3,-122.4,-65.1,0.0,-3.6,-20.7,296.4,-83.4,1187.7,5530.8,-209.4,1434.3,-1803.0,-9.0,1.2,2.4,3776.1,-4779.0,-17.1,148.8,486.3,-183.0,0,72,0,179,
0.0433,-72.0,-174.9,-330.9,-128.1,-73.5,4.5,1.2,-22.2,592.8,-70.5,1179.9,5521.2,-205.2,1428.6,-1794.9,6.6,1.2,2.7,3780.0,-4785.6,-16.8,149.1,507.3,-168.3,0,78,0,180,
0.0467,-78.0,-174.0,-336.3,-132.3,-79.8,3.0,0.3,-25.8,1037.4,-91.5,1167.0,5479.2,-204.0,1425.6,-1780.5,15.0,0.9,2.4,3768.3,-4777.5,-16.8,159.3,506.7,-168.6,0,84,0,181,
0.0500,-76.8,-182.7,-344.4,-138.6,-66.0,-4.8,-3.3,-31.5,1111.5,-75.3,1154.1,5391.3,-207.6,1426.8,-1789.8,6.9,1.2,2.4,3750.0,-4826.1,-16.8,116.4,492.0,-188.1,0,90,0,182,
0.0533,-79.2,-180.3,-338.1,-126.9,-57.6,8.1,-3.0,-24.0,592.8,-73.8,1161.6,5431.5,-213.9,1412.4,-1839.3,-12.6,0.9,2.4,3762.3,-4793.7,-17.1,139.8,486.6,-190.8,0,96,0,183,
0.0567,-75.3,-183.6,-343.8,-139.8,-68.1,-0.3,-3.9,-31.8,148.2,-78.6,1154.4,5500.5,-213.6,1421.1,-1826.4,-13.8,1.2,3.0,3736.5,-4813.5,-17.1,126.9,488.7,-198.9,0,102,0,184,
0.0600,-73.5,-179.7,-348.0,-138.6,-67.5,6.0,-2.7,-32.4,370.5,-79.5,1139.4,5422.8,-206.1,1434.9,-1801.8,-15.9,0.9,2.4,3730.2,-4845.9,-16.8,119.7,490.8,-191.7,0,108,0,185,
0.0633,-80.7,-181.8,-346.2,-140.1,-55.2,6.9,1.2,-32.4,1185.6,-74.7,1140.0,5389.8,-206.1,1421.7,-1800.6,-6.6,1.5,2.4,3739.5,-4842.9,-17.1,116.7,487.8,-193.5,0,114,0,186,
0.0667,-78.0,-184.2,-345.9,-148.8,-107.1,-0.9,3.0,-39.3,1037.4,-86.4,1142.1,5533.5,-205.8,1424.7,-1799.4,-14.1,1.5,2.4,3744.6,-4827.9,-16.8,124.8,493.2,-195.3,0,120,0,187,
0.0700,-77.4,-181.8,-341.7,-147.6,-100.8,6.3,9.6,-33.3,666.9,-74.4,1143.3,5569.5,-208.8,1428.0,-1814.4,-19.5,1.5,2.4,3741.0,-4780.8,-16.8,136.8,507.0,-183.3,0,126,0,188,
0.0733,-76.2,-180.6,-340.2,-141.3,-93.0,9.3,6.9,-27.0,0.0,-71.4,1143.3,5549.4,-210.0,1427.4,-1839.0,-45.3,1.5,2.7,3726.3,-4804.8,-17.4,153.3,500.7,-176.4,0,132,0,189,
0.0767,-72.3,-178.8,-344.7,-146.1,-90.0,-0.3,4.5,-28.8,296.4,-95.1,1131.9,5525.1,-208.2,1438.8,-1796.1,-27.0,1.2,2.4,3733.2,-4798.2,-16.8,119.4,513.3,-198.6,0,138,0,190,
0.0800,-83.4,-180.0,-348.3,-149.4,-98.7,-1.5,3.3,-30.3,889.2,-88.2,1130.1,5474.1,-216.6,1411.2,-1792.2,-18.6,1.2,2.4,3727.5,-4806.3,-16.8,146.4,516.0,-197.1,0,144,0,191,
0.0833,-81.9,-191.4,-355.5,-153.6,-83.1,-3.3,-2.7,-33.0,815.1,-99.0,1117.8,5357.4,-221.1,1424.7,-1784.4,-27.0,0.9,2.1,3715.5,-4817.1,-16.8,124.5,501.9,-185.1,0,150,0,192,
0.0867,-81.9,-191.1,-351.6,-147.3,-80.1,-0.3,3.3,-29.7,296.4,-100.8,1112.7,5424.6,-225.0,1412.4,-1804.5,-34.2,1.2,2.7,3702.3,-4809.9,-17.1,135.3,519.6,-195.9,0,156,0,193,
0.0900,-84.0,-197.4,-354.3,-146.4,-65.1,1.2,1.2,-34.5,-74.1,-99.9,1108.2,5406.3,-222.0,1410.0,-1828.8,-45.9,1.2,2.4,3679.2,-4924.8,-16.8,137.7,507.3,-193.8,0,162,0,194,
0.0933,-81.9,-195.9,-351.0,-148.5,-79.8,-9.0,-3.3,-34.5,74.1,-103.5,1105.2,5462.1,-216.0,1406.4,-1807.2,-23.1,1.2,2.4,3696.6,-4836.9,-16.8,113.7,509.7,-236.4,0,168,0,195,
0.0967,-82.5,-195.6,-353.1,-153.9,-104.1,-16.8,-7.8,-35.1,666.9,-100.2,1105.2,5424.9,-230.1,1411.2,-1752.9,-14.4,1.2,2.4,3699.9,-4817.7,-17.1,123.0,515.4,-222.0,0,174,0,196,
0.1000,-84.3,-198.6,-360.0,-155.1,-90.6,-17.1,-2.1,-33.0,592.8,-108.6,1092.6,5445.3,-229.2,1415.1,-1766.1,-19.8,0.9,2.7,3682.5,-4845.9,-17.1,117.9,524.7,-208.5,0,180,0,197,
0.1033,-80.4,-195.3,-362.1,-160.2,-112.8,-23.7,-9.3,-34.2,222.3,-102.3,1088.7,5402.1,-229.5,1419.0,-1764.3,-34.8,1.2,2.7,3679.2,-4855.8,-16.8,95.7,505.5,-219.3,0,186,0,198,
0.1067,-85.2,-198.6,-358.8,-161.7,-116.1,-24.9,-7.8,-31.2,-222.3,-107.7,1092.0,5452.8,-232.2,1398.9,-1781.4,-31.8,0.9,2.7,3665.7,-4854.0,-17.1,97.5,498.3,-230.4,0,192,0,199,
0.1100,-84.0,-207.0,-369.0,-164.4,-103.5,-28.5,-15.0,-33.6,74.1,-114.0,1075.5,5407.2,-236.1,1403.4,-1748.7,-22.8,0.9,2.4,3658.5,-4864.2,-16.8,85.8,490.5,-225.0,0,198,0,200,
0.1133,-83.1,-203.7,-361.5,-152.7,-106.2,-26.4,-10.2,-29.7,815.1,-109.2,1079.7,5404.8,-236.1,1408.2,-1712.1,-12.9,0.9,2.1,3660.0,-4828.8,-16.8,107.1,495.3,-215.4,0,204,0,201,
0.1167,-91.2,-214.5,-374.1,-169.8,-107.1,-25.5,-5.7,-40.5,592.8,-128.7,1064.1,5396.7,-249.6,1392.6,-1717.2,-10.2,1.2,2.7,3632.7,-4854.0,-16.8,108.3,507.9,-210.0,0,210,0,202,
0.1200,-93.0,-210.6,-370.8,-165.3,-102.0,-18.9,-3.6,-34.8,370.5,-136.2,1062.3,5418.3,-250.2,1393.8,-1741.5,-30.9,1.2,2.1,3633.6,-4892.4,-17.1,108.6,517.2,-201.0,0,216,0,203,
0.1233,-88.8,-207.6,-362.4,-157.8,-101.7,-31.2,-15.9,-33.0,-74.1,-107.1,1074.3,5386.2,-243.3,1401.6,-1740.9,-35.7,1.2,2.4,3627.0,-4842.9,-16.8,95.1,480.9,-237.3,0,222,0,204,
0.1267,-89.4,-212.7,-359.4,-162.0,-114.0,-36.3,-18.9,-37.5,148.2,-113.7,1072.5,5372.1,-245.7,1410.6,-1719.0,-34.2,1.2,2.4,3639.3,-4897.5,-17.1,94.5,475.8,-238.8,0,228,0,205,
0.1300,-88.5,-211.8,-365.1,-163.5,-103.8,-33.6,-14.7,-39.3,889.2,-124.8,1064.7,5361.6,-250.2,1408.8,-1698.6,-14.4,1.2,2.4,3647.1,-4932.6,-16.8,89.4,479.7,-237.6,0,234,0,206,
0.1333,-86.1,-205.5,-359.7,-156.0,-74.4,-15.3,-2.1,-27.6,889.2,-115.2,1067.7,5365.2,-252.0,1398.3,-1733.1,-24.0,0.9,2.7,3643.2,-4919.4,-16.5,99.9,506.7,-221.1,0,240,0,207,
0.1367,-86.4,-204.9,-360.9,-157.8,-92.7,-21.9,3.3,-29.4,444.6,-114.6,1066.2,5334.6,-250.8,1400.4,-1733.4,-12.6,1.2,2.4,3636.3,-4849.2,-17.1,91.5,506.1,-214.2,0,246,0,208,
0.1400,-89.4,-207.9,-363.0,-160.2,-109.8,-34.2,-6.6,-32.4,-74.1,-107.7,1061.1,5372.7,-241.5,1400.7,-1754.7,-30.6,0.9,2.1,3618.9,-4829.1,-17.1,85.2,467.1,-237.0,0,252,0,209,
0.1433,-81.3,-202.2,-361.5,-162.0,-122.1,-24.9,0.3,-32.1,222.3,-117.9,1066.8,5404.8,-242.7,1403.7,-1698.9,-0.3,1.2,2.4,3627.9,-4811.7,-17.1,103.2,480.9,-213.3,0,258,0,210,
0.1467,-82.2,-200.4,-352.5,-143.1,-97.8,-12.0,4.8,-23.1,741.0,-111.9,1072.5,5406.6,-241.8,1400.7,-1722.0,18.6,1.5,2.7,3637.8,-4814.1,-17.1,108.6,486.6,-195.9,0,264,0,211,
0.1500,-84.9,-204.9,-352.5,-146.7,-98.7,-16.8,5.7,-23.7,815.1,-120.9,1071.6,5387.4,-253.5,1392.6,-1722.0,5.4,1.2,2.1,3631.8,-4833.0,-17.1,134.7,491.7,-179.4,0,270,0,212,
0.1533,-84.6,-204.3,-353.4,-148.8,-100.5,-16.5,-3.3,-22.2,370.5,-116.1,1070.4,5380.8,-261.0,1403.4,-1738.2,-15.0,1.5,2.7,3625.8,-4849.8,-17.1,115.2,472.8,-195.6,0,276,0,213,
0.1567,-80.1,-195.6,-344.1,-139.8,-83.7,-17.4,-2.4,-18.3,0.0,-102.6,1077.3,5375.1,-252.3,1414.5,-1746.9,-21.0,1.2,2.1,3617.1,-4858.5,-16.8,113.7,455.4,-214.2,0,282,0,214,
0.1600,-76.8,-193.5,-338.7,-132.3,-84.9,-12.6,-1.5,-14.4,222.3,-105.6,1091.7,5414.1,-250.2,1417.8,-1736.4,-12.9,0.9,2.1,3637.8,-4817.7,-16.8,119.4,459.9,-196.2,0,288,0,215,
0.1633,-75.0,-187.8,-339.3,-134.1,-79.5,-14.4,-4.8,-17.1,889.2,-101.4,1089.3,5340.6,-234.3,1420.8,-1701.9,5.4,1.2,2.4,3629.7,-4826.7,-17.1,118.8,448.8,-200.1,0,294,0,216,
0.1667,-79.5,-197.1,-348.3,-135.6,-72.6,-15.6,-8.1,-18.9,889.2,-120.6,1077.9,5287.5,-246.3,1410.9,-1723.8,-7.2,1.2,2.7,3624.6,-4856.4,-17.1,110.1,454.8,-196.2,0,300,0,217,
0.1700,-74.7,-199.2,-347.4,-134.7,-84.0,-20.7,-8.4,-18.0,370.5,-103.2,1078.2,5326.2,-242.1,1416.6,-1716.3,-22.2,0.9,2.1,3613.8,-4899.6,-16.8,118.2,448.5,-200.4,0,306,0,218,
0.1733,-77.4,-197.4,-346.2,-134.4,-88.2,-17.1,-9.9,-17.4,0.0,-112.8,1078.8,5335.8,-239.7,1412.1,-1743.3,-27.6,1.2,2.4,3596.4,-4855.5,-16.8,124.2,457.8,-184.8,0,312,0,219,
0.1767,-80.7,-195.3,-350.1,-138.0,-86.7,-12.6,-7.5,-17.1,148.2,-114.0,1070.4,5385.3,-245.7,1408.2,-1713.3,-0.6,1.2,2.4,3588.0,-4891.2,-17.1,123.0,459.3,-172.5,0,318,0,220,
0.1800,-83.7,-196.8,-356.7,-145.8,-90.9,-17.1,-11.7,-21.9,815.1,-120.6,1066.2,5340.0,-238.5,1409.1,-1689.9,39.3,1.5,2.4,3578.1,-4871.7,-16.8,108.3,451.2,-199.8,0,324,0,221,
0.1833,-77.7,-198.3,-352.8,-140.1,-80.1,-17.7,-15.9,-16.2,815.1,-120.3,1066.5,5324.4,-243.9,1413.6,-1684.2,34.5,1.5,2.1,3571.8,-4853.7,-16.8,114.0,451.5,-217.2,0,330,0,222,
0.1867,-75.6,-193.2,-348.0,-134.1,-82.2,-15.6,-18.0,-13.2,444.6,-120.3,1064.4,5336.4,-238.8,1422.3,-1692.6,18.0,1.2,2.7,3564.9,-4846.8,-17.1,115.5,441.3,-196.5,0,336,0,223,
0.1900,-76.5,-191.4,-347.1,-132.3,-77.4,-18.6,-15.6,-13.5,-148.2,-119.7,1063.5,5333.7,-234.9,1419.6,-1687.8,-6.9,1.2,2.1,3553.8,-4908.9,-16.8,99.6,443.1,-196.2,0,342,0,224,
0.1933,-76.2,-188.4,-339.9,-132.0,-81.6,-20.1,-12.9,-10.8,222.3,-106.8,1062.0,5299.2,-227.1,1419.6,-1681.2,29.7,1.2,2.7,3562.8,-4863.0,-17.4,113.1,450.0,-194.4,0,348,0,225,
0.1967,-73.8,-187.5,-339.3,-130.8,-85.8,-16.5,-13.8,-6.0,889.2,-106.8,1065.6,5282.4,-229.8,1432.8,-1653.0,57.9,1.5,2.4,3558.0,-4865.7,-16.8,109.2,441.3,-193.8,0,354,0,226,
0.2000,-76.8,-191.1,-346.2,-133.5,-76.8,-19.2,-16.2,-12.6,815.1,-113.7,1053.0,5248.5,-232.8,1430.1,-1659.6,45.0,1.2,2.1,3538.5,-4860.6,-17.1,107.4,421.5,-187.2,0,360,0,227,
0.2033,-81.9,-193.5,-352.2,-138.6,-100.2,-16.2,-18.3,-16.2,370.5,-110.1,1041.3,5273.1,-234.6,1428.6,-1694.7,29.7,1.2,2.4,3524.1,-4848.3,-17.1,113.7,423.3,-191.4,0,366,0,228,
0.2067,-78.6,-192.9,-354.9,-142.8,-79.5,-13.5,-13.8,-17.4,-148.2,-128.4,1040.7,5232.6,-238.8,1420.8,-1697.4,34.5,0.9,2.4,3505.8,-4844.7,-17.1,120.6,428.1,-193.2,0,372,0,229,
0.2100,-75.0,-193.2,-354.3,-142.5,-91.5,-16.2,-18.3,-19.8,148.2,-112.5,1035.3,5273.4,-231.6,1427.1,-1683.0,54.3,1.5,2.4,3510.0,-4880.1,-16.5,102.9,430.5,-199.8,0,378,0,230,
0.2133,-78.6,-189.9,-345.3,-131.1,-69.3,-10.2,-12.9,-12.0,666.9,-99.3,1036.5,5255.4,-236.4,1423.2,-1677.6,70.8,1.2,2.1,3511.8,-4838.7,-17.1,118.8,453.3,-193.2,0,384,0,231,
0.2167,-75.0,-183.9,-343.5,-135.0,-73.5,-11.7,-15.3,-12.3,741.0,-100.5,1036.8,5231.4,-223.8,1435.5,-1676.1,52.5,1.5,2.7,3517.2,-4833.3,-16.8,108.9,448.5,-196.2,0,390,0,232,
0.2200,-71.1,-185.7,-343.2,-131.4,-55.2,1.8,-10.5,-8.7,222.3,-93.6,1029.3,5256.6,-227.7,1436.4,-1714.5,29.7,1.2,2.4,3506.7,-4902.0,-16.8,113.4,448.2,-180.6,0,396,0,233,
0.2233,-72.6,-184.2,-347.4,-138.3,-98.4,-12.0,-12.9,-13.5,-222.3,-107.4,1028.4,5313.9,-225.0,1434.9,-1716.9,15.0,1.2,2.4,3491.4,-4869.9,-17.1,111.6,450.0,-188.7,0,402,0,234,
0.2267,-74.1,-191.1,-354.6,-146.7,-100.8,-21.6,-15.9,-18.9,148.2,-102.9,1021.2,5291.4,-225.6,1427.4,-1700.1,23.1,1.2,2.4,3492.3,-4887.0,-17.1,115.2,447.0,-196.2,0,408,0,235,
0.2300,-75.0,-195.0,-351.6,-147.3,-106.8,-22.2,-18.6,-24.6,741.0,-98.1,1019.7,5238.6,-231.3,1436.1,-1678.2,33.9,1.2,2.7,3484.8,-4845.9,-17.1,104.7,445.2,-196.5,0,414,0,236,
0.2333,-78.3,-198.0,-359.7,-145.2,-102.0,-20.1,-14.4,-24.3,666.9,-110.1,1010.4,5270.1,-236.1,1437.3,-1692.0,40.8,1.2,2.7,3479.4,-4948.8,-16.8,104.4,451.8,-189.0,0,420,0,237,
0.2367,-78.3,-201.3,-364.2,-149.1,-90.6,-16.8,-21.0,-22.8,148.2,-116.4,1007.1,5213.4,-242.4,1430.1,-1741.2,13.5,0.9,2.4,3465.9,-4929.9,-16.8,112.5,453.0,-189.9,0,426,0,238,
0.2400,-79.2,-198.3,-363.9,-152.4,-100.8,-23.4,-22.8,-24.3,-444.6,-104.4,1005.6,5221.2,-239.1,1429.2,-1755.9,18.9,1.2,2.4,3454.2,-4875.9,-16.8,104.1,444.9,-203.1,0,432,0,239,
0.2433,-74.4,-196.2,-361.5,-151.8,-103.2,-27.3,-27.6,-22.8,74.1,-93.6,1006.2,5191.5,-235.5,1429.2,-1750.2,32.4,1.5,2.1,3467.1,-4899.6,-17.1,105.3,440.1,-205.8,0,438,0,240,
0.2467,-74.1,-196.5,-359.4,-150.0,-106.5,-28.5,-26.1,-21.3,592.8,-102.6,1007.1,5210.4,-225.6,1432.5,-1731.3,47.7,1.2,2.4,3467.4,-4881.0,-16.8,102.6,435.0,-201.3,0,444,0,241,
0.2500,-71.4,-195.0,-367.5,-160.8,-115.2,-30.9,-31.5,-29.1,592.8,-101.1,997.5,5131.2,-234.9,1445.7,-1749.3,22.8,1.5,2.7,3459.3,-4885.2,-17.1,99.0,435.6,-208.5,0,450,0,242,
0.2533,-69.9,-194.7,-362.1,-158.7,-105.3,-29.1,-29.1,-25.2,74.1,-108.3,993.9,5170.5,-231.6,1441.5,-1766.7,8.4,1.5,2.4,3447.9,-4901.7,-17.1,96.3,434.7,-207.0,0,456,0,243,
0.2567,-77.1,-192.0,-360.6,-157.5,-106.8,-31.2,-31.5,-24.3,-518.7,-99.3,1006.2,5167.8,-229.8,1422.6,-1822.2,2.7,1.2,2.4,3422.1,-4926.0,-16.8,91.2,440.1,-210.9,0,462,0,244,
0.2600,-78.9,-197.4,-361.5,-157.2,-99.0,-24.6,-27.9,-27.3,-148.2,-101.1,1009.5,5149.5,-236.7,1428.0,-1793.1,6.9,1.2,2.4,3432.3,-4961.7,-16.8,100.8,447.6,-202.2,0,468,0,245,
0.2633,-78.6,-200.4,-363.6,-160.5,-97.5,-29.1,-24.3,-29.4,592.8,-103.5,999.0,5127.6,-239.7,1432.8,-1778.1,27.9,1.2,2.1,3422.7,-4999.8,-16.8,93.0,451.8,-206.4,0,474,0,246,
0.2667,-76.8,-195.9,-360.0,-155.7,-92.4,-23.7,-21.6,-23.1,518.7,-102.9,1000.2,5169.9,-235.8,1437.0,-1781.4,19.8,1.5,2.4,3430.2,-4990.5,-16.8,103.8,452.4,-198.3,0,480,0,247,
0.2700,-82.8,-199.8,-369.6,-163.5,-100.8,-39.0,-25.5,-32.1,0.0,-110.7,990.6,5091.9,-233.7,1425.6,-1827.9,-12.6,0.9,2.1,3411.0,-4941.6,-16.8,80.4,455.7,-217.5,0,486,0,248,
0.2733,-83.7,-204.3,-371.7,-160.5,-103.8,-37.5,-25.5,-29.4,-370.5,-104.7,992.1,5113.2,-243.9,1422.9,-1833.6,-14.4,1.2,2.4,3400.8,-4962.0,-16.8,88.5,438.6,-213.3,0,492,0,249,
0.2767,-79.2,-195.6,-363.3,-153.6,-106.5,-35.7,-25.8,-26.4,-222.3,-97.2,1001.4,5197.2,-237.9,1436.1,-1830.0,5.1,1.2,2.1,3423.6,-4937.1,-16.8,99.9,442.2,-213.9,0,498,0,250,
0.2800,-83.7,-197.1,-363.0,-158.4,-119.7,-39.9,-31.8,-32.7,518.7,-105.0,997.5,5197.5,-240.3,1435.2,-1799.1,20.7,1.5,2.4,3417.3,-4901.1,-17.1,95.7,439.5,-211.5,0,504,0,251,
0.2833,-85.8,-196.2,-362.4,-160.2,-118.2,-34.5,-30.3,-35.4,444.6,-112.2,996.3,5194.5,-234.6,1433.4,-1815.0,3.6,0.9,2.4,3405.3,-4890.9,-17.1,123.6,450.3,-202.2,0,510,0,252,
0.2867,-81.3,-192.9,-354.9,-154.2,-114.6,-32.7,-21.3,-30.3,-148.2,-96.0,999.3,5199.9,-231.0,1437.9,-1836.0,-15.3,1.2,2.4,3392.1,-4890.3,-17.1,93.9,458.4,-201.9,0,516,0,253,
0.2900,-80.4,-191.1,-357.3,-153.6,-98.1,-25.5,-16.8,-30.0,-592.8,-97.5,997.8,5178.9,-235.8,1439.1,-1858.2,-25.8,0.9,2.4,3375.9,-4944.6,-16.8,93.3,471.6,-186.9,0,522,0,254,
0.2933,-80.4,-189.3,-355.5,-150.9,-95.7,-20.7,-14.1,-28.2,-222.3,-98.4,999.0,5173.2,-225.0,1440.9,-1835.4,-8.1,1.8,2.4,3388.5,-4935.9,-17.1,105.6,472.2,-177.9,0,528,0,255,
0.2967,-78.6,-184.5,-347.4,-141.9,-93.0,-9.9,-10.2,-24.0,444.6,-102.9,1009.5,5183.1,-231.3,1446.3,-1809.3,0.3,0.9,2.7,3392.1,-4898.1,-16.8,114.6,490.2,-167.7,0,534,0,0,
0.3000,-77.1,-184.5,-350.1,-146.1,-94.5,-14.7,-9.9,-26.1,444.6,-98.7,998.7,5136.6,-226.8,1449.6,-1812.0,7.2,1.2,2.1,3374.4,-4928.7,-16.8,108.0,491.1,-189.3,0,540,0,1,
0.3033,-76.2,-180.3,-343.2,-132.9,-63.3,-8.7,-14.1,-22.5,-74.1,-85.5,1010.1,5058.3,-222.0,1446.3,-1854.0,-9.9,1.2,2.7,3369.0,-4937.7,-16.8,120.6,483.6,-176.4,0,546,0,2,
0.3067,-75.9,-174.6,-339.6,-124.8,-54.6,-8.7,-14.7,-19.2,-592.8,-100.2,1004.4,5145.0,-221.4,1439.7,-1871.7,-27.0,0.9,2.7,3357.9,-4903.8,-16.8,107.1,492.9,-182.7,0,552,0,3,
0.3100,-79.2,-174.6,-338.1,-127.5,-60.3,-8.4,-15.0,-17.4,-222.3,-97.8,1001.7,5096.1,-218.7,1442.4,-1872.6,-21.3,1.2,2.4,3367.8,-5010.0,-17.4,97.5,495.6,-173.4,0,558,0,4,
0.3133,-78.9,-179.7,-342.0,-132.9,-72.0,-12.3,-14.1,-22.8,222.3,-101.4,992.7,5065.2,-234.9,1431.0,-1871.1,-16.2,1.2,2.4,3363.9,-5013.9,-16.5,101.4,509.4,-182.7,0,564,0,5,
0.3167,-76.5,-183.0,-344.7,-127.8,-61.8,-9.3,-13.2,-18.3,370.5,-100.8,993.6,5059.5,-235.8,1437.3,-1885.8,-29.1,1.2,2.7,3353.1,-4906.8,-16.8,103.5,509.1,-184.5,0,570,0,6,
0.3200,-78.6,-181.5,-348.9,-136.8,-86.7,-16.5,-21.0,-20.1,-148.2,-116.1,993.0,5145.6,-244.2,1435.8,-1907.1,-39.6,1.2,2.1,3341.7,-4927.5,-16.8,108.9,491.4,-182.4,0,576,0,7,
0.3233,-75.9,-175.8,-338.4,-129.0,-93.6,-16.5,-19.2,-18.9,-666.9,-105.6,1004.1,5185.5,-221.7,1446.9,-1905.0,-52.8,1.2,2.1,3334.2,-4891.2,-16.8,101.7,481.2,-197.1,0,582,0,8,
0.3267,-81.3,-183.9,-343.2,-132.6,-88.5,-27.3,-28.8,-22.8,-518.7,-108.0,999.9,5156.1,-230.7,1441.2,-1901.1,-53.4,1.5,2.4,3339.0,-4913.7,-16.8,104.7,483.6,-210.0,0,588,0,9,
0.3300,-76.2,-181.8,-339.9,-133.5,-87.9,-27.9,-25.2,-18.9,296.4,-105.3,996.6,5145.3,-225.9,1458.0,-1875.0,-36.9,1.2,2.7,3340.2,-4914.0,-16.8,90.9,492.3,-204.3,0,594,0,10,
0.3333,-75.6,-182.4,-336.3,-129.6,-84.0,-21.9,-19.5,-23.1,444.6,-93.6,998.1,5138.7,-231.0,1442.1,-1880.4,-30.6,1.5,2.1,3328.8,-4911.0,-16.8,103.2,504.0,-197.7,0,600,0,11,
0.3367,-70.5,-177.9,-331.2,-129.9,-81.6,-21.6,-19.8,-17.7,74.1,-96.3,1004.4,5123.4,-220.8,1452.3,-1890.3,-46.5,1.2,2.4,3319.2,-4912.5,-16.8,100.8,501.6,-198.3,0,606,0,12,
0.3400,-71.4,-177.0,-333.0,-127.2,-85.5,-27.3,-23.1,-21.3,-148.2,-88.8,1002.0,5121.3,-216.0,1441.2,-1897.8,-62.7,1.2,2.1,3295.8,-4923.0,-16.8,103.5,493.5,-203.4,0,612,0,13,
0.3433,-72.0,-173.4,-327.3,-121.8,-77.1,-16.8,-19.2,-15.6,-74.1,-89.1,994.5,5117.4,-215.7,1448.7,-1877.1,-40.8,1.2,2.7,3309.6,-4933.8,-16.8,113.4,496.5,-195.6,0,618,0,14,
0.3467,-72.3,-175.2,-330.9,-123.9,-78.9,-17.7,-19.5,-16.5,592.8,-90.6,997.8,5108.7,-216.9,1453.8,-1854.3,-15.6,1.2,1.8,3302.4,-4927.8,-17.1,102.3,504.3,-202.2,0,624,0,15,
0.3500,-74.4,-171.9,-327.6,-119.1,-75.6,-16.2,-22.2,-16.5,592.8,-87.3,1003.2,5094.6,-213.3,1448.1,-1857.3,-25.5,1.2,3.0,3298.8,-4992.0,-17.1,117.0,496.2,-198.0,0,630,0,16,
0.3533,-71.4,-168.6,-327.6,-116.7,-64.2,-11.7,-21.6,-12.6,222.3,-75.6,1007.1,5055.6,-207.0,1446.6,-1884.0,-33.3,1.2,2.4,3294.3,-5000.4,-17.1,119.7,494.1,-201.0,0,636,0,17,
0.3567,-74.7,-174.9,-334.5,-118.5,-60.6,-11.1,-15.3,-9.9,-222.3,-80.4,991.8,5045.7,-216.3,1444.2,-1885.5,-27.9,1.2,2.1,3273.0,-4934.7,-17.1,113.4,496.2,-184.2,0,642,0,18,
0.3600,-76.5,-174.0,-338.1,-121.8,-63.9,-9.9,-15.9,-11.7,222.3,-87.3,987.9,5058.3,-222.3,1454.1,-1859.7,-21.6,0.9,2.4,3291.3,-4956.3,-16.8,127.5,506.7,-167.1,0,648,0,19,
0.3633,-78.3,-168.3,-333.6,-121.2,-66.9,-5.1,-6.6,-9.3,592.8,-70.8,987.6,5064.6,-208.2,1461.6,-1821.9,-4.5,1.2,2.7,3284.1,-4945.8,-16.8,119.7,517.5,-168.9,0,654,0,20,
0.3667,-78.6,-172.2,-339.0,-128.7,-80.1,-7.5,-11.1,-14.4,815.1,-76.8,982.8,5065.2,-206.4,1450.5,-1837.2,-0.9,1.5,2.1,3273.9,-4949.7,-16.8,112.2,516.0,-172.8,0,660,0,21,
0.3700,-74.4,-169.5,-337.5,-129.6,-76.2,-4.8,-7.8,-9.9,296.4,-61.5,986.4,5067.9,-206.7,1461.6,-1863.3,-16.2,1.2,2.4,3266.7,-4962.6,-17.1,122.1,519.0,-165.9,0,666,0,22,
0.3733,-76.5,-178.5,-343.2,-132.0,-75.3,-9.0,-9.0,-8.1,-222.3,-75.0,977.4,4997.4,-209.7,1450.5,-1860.9,-30.3,0.9,2.7,3256.2,-4959.3,-16.8,125.1,505.5,-171.3,0,672,0,23,
0.3767,-70.8,-176.7,-341.7,-127.5,-60.0,-2.7,-5.4,-4.5,-74.1,-84.9,976.5,4948.5,-215.4,1461.3,-1818.6,-18.0,1.5,2.4,3266.4,-4982.1,-16.8,118.8,518.1,-161.7,0,678,0,24,
0.3800,-76.2,-184.5,-346.2,-131.4,-79.2,-11.7,-11.4,-13.8,518.7,-82.5,971.4,5013.0,-221.7,1461.3,-1799.4,-14.1,0.9,2.4,3254.7,-4988.4,-17.1,112.8,513.3,-177.9,0,684,0,25,
0.3833,-75.9,-182.4,-344.7,-130.8,-73.5,-8.7,-9.0,-9.0,518.7,-70.5,972.6,5047.5,-215.4,1459.8,-1821.0,-19.2,1.2,2.1,3240.9,-4949.1,-17.1,122.1,508.8,-163.5,0,690,0,26,
0.3867,-82.2,-187.2,-353.1,-138.9,-91.8,-16.8,-18.3,-17.1,-74.1,-95.1,964.8,5076.0,-223.5,1451.1,-1850.1,-43.5,1.2,2.1,3228.9,-4955.4,-17.1,125.4,493.8,-171.6,0,696,0,27,
0.3900,-75.3,-177.6,-348.6,-133.2,-81.9,-9.0,-14.1,-8.4,-518.7,-78.9,969.3,5074.8,-214.8,1454.1,-1853.4,-54.9,0.9,2.4,3215.7,-4947.0,-16.8,140.7,473.4,-167.4,0,702,0,28,
0.3933,-75.3,-180.6,-351.6,-137.4,-83.1,-11.1,-17.7,-14.7,-296.4,-85.2,966.0,5046.9,-219.6,1458.0,-1827.9,-39.3,1.5,2.4,3214.2,-4977.3,-16.8,126.3,476.7,-179.7,0,708,0,29,
0.3967,-77.4,-183.6,-354.6,-142.5,-87.9,-15.6,-16.5,-20.7,296.4,-89.1,958.2,5030.4,-222.6,1457.4,-1809.0,-39.3,1.2,2.1,3201.9,-4990.8,-17.1,132.0,481.2,-182.7,0,714,0,30,
0.4000,-72.3,-186.0,-353.1,-142.5,-89.7,-19.2,-19.8,-21.0,296.4,-87.9,957.6,5028.9,-218.4,1456.8,-1801.2,-29.4,1.5,2.4,3189.9,-4972.8,-17.1,117.6,458.7,-182.1,0,720,0,31,
0.4033,-69.0,-178.5,-354.6,-140.4,-86.4,-12.9,-18.6,-19.2,0.0,-83.4,955.5,5019.0,-215.1,1457.4,-1818.0,-33.0,1.2,2.4,3179.7,-5023.8,-17.1,118.5,461.1,-169.2,0,726,0,32,
0.4067,-71.7,-187.8,-365.7,-150.0,-82.2,-18.0,-16.5,-22.8,-296.4,-86.1,937.2,4989.6,-222.6,1451.7,-1827.6,-27.9,1.5,2.4,3154.8,-5094.9,-16.8,105.9,457.8,-181.5,0,732,0,33,
0.4100,-79.8,-201.3,-371.4,-157.5,-104.7,-29.4,-16.8,-27.0,-74.1,-96.6,903.3,4949.1,-228.9,1455.3,-1810.5,-11.7,0.9,2.7,3152.7,-5056.5,-16.8,106.2,464.7,-198.6,0,738,0,34,
0.4133,-81.0,-197.1,-365.7,-153.9,-94.2,-24.3,-18.6,-23.7,518.7,-96.3,906.6,4964.1,-234.3,1455.3,-1770.0,12.6,1.2,2.4,3159.9,-4993.2,-16.8,111.9,462.3,-190.8,0,744,0,35,
0.4167,-72.0,-184.8,-358.5,-148.2,-90.0,-16.2,-12.6,-17.4,518.7,-79.5,922.8,4983.3,-223.5,1473.0,-1772.4,-7.2,1.2,2.4,3175.5,-5028.0,-16.8,130.5,468.9,-184.2,0,750,0,36,
0.4200,-71.1,-183.0,-350.1,-141.6,-84.6,-9.3,-16.5,-15.3,0.0,-64.2,951.9,5006.1,-213.9,1470.6,-1780.2,-11.4,1.2,2.4,3194.1,-5010.6,-17.1,139.2,467.1,-177.3,0,756,0,37,
0.4233,-70.8,-180.6,-343.8,-133.2,-78.3,-7.5,-13.5,-14.4,-444.6,-51.0,968.4,5013.3,-205.8,1464.3,-1781.4,-18.3,1.5,2.7,3198.0,-4981.8,-17.1,156.3,459.6,-165.9,0,762,0,38,
0.4267,-72.3,-183.6,-355.8,-147.6,-88.2,-17.4,-16.8,-19.2,-74.1,-58.2,931.5,4967.1,-206.4,1472.1,-1757.7,0.6,0.6,2.4,3185.1,-5000.7,-16.8,136.2,459.0,-169.2,0,768,0,39,
0.4300,-72.9,-187.8,-361.2,-151.5,-92.7,-17.7,-17.1,-22.5,518.7,-61.8,916.2,4962.0,-215.7,1469.7,-1728.6,21.6,1.2,2.4,3169.8,-5017.8,-17.1,154.5,460.5,-169.8,0,774,0,40,
0.4333,-72.3,-186.6,-368.1,-157.5,-92.1,-13.5,-12.3,-22.8,666.9,-58.5,896.4,4933.5,-214.5,1476.0,-1725.9,31.5,1.2,2.4,3151.8,-5019.0,-17.1,141.6,459.9,-163.8,0,780,0,41,
0.4367,-75.3,-187.8,-366.0,-155.7,-93.3,-7.8,-12.0,-17.1,296.4,-60.3,879.9,4928.1,-217.8,1465.8,-1737.9,24.9,0.9,2.7,3143.4,-5055.3,-17.1,152.4,467.1,-162.0,0,786,0,42,
0.4400,-69.0,-185.4,-366.6,-158.7,-98.1,-6.0,-11.7,-17.1,-370.5,-49.5,874.5,4893.0,-208.2,1475.1,-1749.6,22.5,0.9,2.4,3129.0,-5058.9,-17.1,159.3,452.1,-156.3,0,792,0,43,
0.4433,-67.5,-175.2,-351.9,-147.6,-87.6,-0.9,-16.5,-9.6,-74.1,-27.6,885.9,4876.8,-207.0,1471.5,-1747.2,-1.8,1.2,2.7,3135.9,-5049.6,-17.1,174.0,443.4,-151.2,0,798,0,44,
0.4467,-69.0,-179.1,-356.1,-150.9,-84.0,2.4,-16.8,-12.0,370.5,-49.8,875.7,4911.0,-205.8,1477.2,-1706.4,27.3,1.5,2.4,3129.9,-5036.4,-16.8,174.6,446.7,-146.7,0,804,0,45,
0.4500,-67.8,-180.0,-346.2,-139.8,-76.8,4.8,-13.5,-9.6,444.6,-41.1,876.6,4918.2,-220.8,1473.3,-1724.7,49.5,0.9,2.4,3082.5,-5045.1,-17.1,177.6,453.9,-145.2,0,810,0,46,
0.4533,-69.6,-177.6,-351.3,-145.5,-84.0,4.8,-18.9,-10.5,0.0,-31.8,852.0,4881.6,-214.2,1467.0,-1749.3,10.5,1.5,2.4,3107.7,-5053.2,-16.8,177.0,440.1,-135.0,0,816,0,47,
0.4567,-67.2,-177.3,-354.6,-148.2,-84.9,0.6,-23.4,-15.6,-370.5,-48.0,800.7,4801.8,-217.5,1474.2,-1731.9,7.2,1.2,2.4,2979.6,-5073.9,-16.8,169.5,430.2,-144.0,0,822,0,48,
0.4600,-70.2,-180.9,-338.7,-149.1,-81.6,-5.1,-21.6,-17.4,-222.3,-70.8,755.7,4835.1,-214.8,1478.4,-1698.6,37.8,1.2,2.4,3033.0,-5110.2,-16.8,155.4,436.5,-155.4,0,828,0,49,
0.4633,-67.8,-183.3,-342.6,-141.9,-73.2,-3.3,-23.1,-11.4,444.6,-50.4,789.0,4841.1,-210.0,1473.9,-1713.0,55.5,1.2,2.7,3077.1,-5128.5,-17.1,164.4,439.2,-159.9,0,834,0,50,
0.4667,-79.5,-195.3,-354.9,-143.4,-74.1,-4.8,-22.8,-17.1,592.8,-54.6,832.8,4859.1,-214.8,1452.9,-1722.9,42.0,0.9,2.4,3035.1,-5096.4,-16.5,163.5,439.8,-156.9,0,840,0,51,
0.4700,-73.8,-194.4,-357.6,-149.1,-91.5,-13.2,-28.5,-19.2,222.3,-45.0,846.3,4825.8,-211.2,1466.4,-1717.8,34.8,1.2,2.4,3050.1,-5112.0,-17.1,152.7,438.9,-167.4,0,846,0,52,
0.4733,-74.7,-192.0,-353.1,-144.0,-92.7,-12.9,-19.8,-17.7,-296.4,-37.5,841.8,4855.5,-206.7,1457.4,-1760.1,30.9,1.2,2.1,3090.6,-5088.3,-17.4,158.4,444.6,-161.1,0,852,0,53,
0.4767,-75.9,-199.5,-370.5,-149.1,-99.3,-15.0,-25.5,-21.3,-148.2,-57.3,830.1,4873.8,-225.0,1458.6,-1744.8,61.8,1.2,2.1,3096.9,-5082.0,-17.1,164.1,449.4,-162.0,0,858,0,54,
0.4800,-87.0,-200.1,-370.2,-151.2,-98.1,-15.6,-19.8,-23.7,592.8,-59.7,819.0,4851.0,-221.7,1442.1,-1764.9,65.4,0.9,2.4,3056.7,-5066.1,-17.1,180.9,465.6,-152.4,0,864,0,55,
0.4833,-85.8,-204.6,-378.9,-156.6,-106.8,-18.3,-25.5,-27.6,444.6,-63.3,822.9,4861.2,-226.5,1455.0,-1744.8,69.3,0.9,2.4,3041.4,-5092.5,-17.1,157.2,473.7,-161.7,0,870,0,56,
0.4867,-86.7,-206.7,-378.3,-162.3,-115.8,-20.1,-30.6,-32.4,222.3,-68.1,818.7,4854.3,-230.7,1442.4,-1768.8,45.0,1.2,2.4,3049.5,-5094.9,-16.8,164.4,470.1,-162.3,0,876,0,57,
0.4900,-83.1,-199.8,-367.8,-153.0,-106.2,-16.8,-30.0,-25.5,-296.4,-35.4,828.3,4863.0,-210.9,1449.3,-1789.8,33.6,1.2,2.1,3059.1,-5084.7,-16.8,183.9,487.8,-153.6,0,882,0,58,
0.4933,-75.6,-191.1,-361.8,-152.7,-107.7,-23.1,-33.0,-21.6,74.1,-28.8,819.6,4847.4,-203.1,1463.4,-1740.9,39.6,0.9,2.4,3096.3,-5096.7,-16.8,169.2,465.6,-166.2,0,888,0,59,
0.4967,-70.5,-183.9,-350.4,-141.3,-96.9,-12.0,-24.6,-18.0,741.0,-22.2,825.0,4839.6,-195.0,1461.0,-1719.9,59.7,1.2,2.4,3125.4,-5100.6,-17.1,176.4,479.4,-150.6,0,894,0,60,
0.5000,-72.3,-186.3,-354.0,-150.6,-109.8,-19.2,-31.5,-20.7,666.9,-27.6,798.0,4832.1,-198.6,1462.8,-1701.0,54.9,1.2,2.4,3107.1,-5116.2,-16.8,148.5,467.1,-183.3,0,900,0,61,
0.5033,-70.2,-180.0,-348.9,-147.9,-101.4,-12.6,-24.6,-16.8,370.5,-32.7,802.8,4837.5,-194.4,1466.1,-1705.5,38.7,0.9,2.7,3106.8,-5115.6,-17.1,165.9,478.5,-161.4,0,906,0,62,
0.5067,-65.4,-178.5,-348.0,-147.6,-101.7,-17.1,-18.0,-18.3,-74.1,-12.0,805.2,4830.9,-188.7,1482.0,-1700.1,28.2,1.2,2.7,3080.7,-5116.5,-17.1,167.1,477.3,-163.8,0,912,0,63,
0.5100,-68.1,-180.0,-346.5,-152.7,-102.3,-21.3,-23.1,-21.3,0.0,-23.1,795.0,4819.2,-197.1,1469.1,-1713.9,23.1,0.9,2.1,3087.0,-5130.0,-16.8,162.9,474.0,-176.1,0,918,0,64,
0.5133,-70.2,-179.7,-354.6,-154.8,-104.7,-16.2,-21.0,-21.0,666.9,-19.5,785.4,4805.4,-192.9,1484.1,-1711.2,33.6,1.5,2.7,3101.4,-5145.6,-17.1,150.9,475.5,-169.2,0,924,0,65,
0.5167,-69.0,-178.2,-355.8,-155.1,-102.3,-21.0,-23.1,-20.7,666.9,-9.0,788.7,4798.2,-191.1,1472.4,-1721.7,16.8,1.2,2.4,3132.6,-5153.4,-17.1,153.0,478.8,-165.3,0,930,0,66,
0.5200,-72.6,-178.5,-354.9,-150.9,-94.8,-7.2,-17.1,-17.4,370.5,-9.6,783.6,4797.0,-196.5,1462.8,-1786.8,-21.6,1.2,2.1,3149.1,-5136.3,-16.8,190.8,472.2,-142.2,0,936,0,67,
0.5233,-69.9,-174.6,-356.7,-154.5,-100.8,-15.6,-16.2,-22.8,-148.2,-39.3,776.4,4789.5,-200.4,1465.5,-1824.3,-34.5,1.2,2.1,3138.0,-5156.1,-17.1,170.7,480.3,-155.4,0,942,0,68,
0.5267,-77.1,-182.1,-362.7,-158.7,-106.2,-16.8,-18.9,-27.6,0.0,-37.2,770.1,4785.6,-195.0,1459.8,-1860.3,-39.3,0.9,2.4,3150.0,-5166.0,-16.8,151.5,483.0,-157.8,0,948,0,69,
0.5300,-74.4,-173.7,-364.5,-160.8,-108.3,-17.7,-19.5,-29.4,592.8,-20.1,771.9,4790.1,-182.1,1468.5,-1891.8,-45.9,1.2,2.4,3157.2,-5166.0,-16.5,160.5,490.8,-152.7,0,954,0,70,
0.5333,-77.7,-178.8,-372.3,-169.5,-118.2,-25.2,-23.7,-36.0,592.8,-15.0,758.1,4781.4,-190.2,1462.2,-1918.2,-63.6,0.9,2.4,3152.7,-5208.9,-16.8,152.4,480.0,-153.6,0,960,0,71,
0.5367,-77.1,-177.0,-374.7,-166.5,-112.2,-17.1,-24.0,-36.9,296.4,-31.2,763.8,4790.7,-195.0,1464.6,-1980.0,-81.3,0.9,2.1,3154.2,-5224.5,-16.8,159.0,494.1,-153.0,0,966,0,72,
0.5400,-79.5,-175.8,-372.0,-164.1,-112.5,-17.1,-22.2,-32.4,-296.4,-47.7,767.7,4786.8,-189.0,1455.9,-2041.5,-107.4,1.2,2.4,3161.7,-5170.8,-17.4,164.7,494.4,-154.5,0,972,0,73,
0.5433,-73.5,-177.3,-373.8,-166.5,-116.4,-21.9,-23.1,-30.3,0.0,-47.4,758.7,4779.6,-188.7,1461.9,-2075.4,-89.1,1.2,2.1,3172.8,-5176.5,-17.1,153.9,492.6,-159.0,0,978,0,74,
0.5467,-81.9,-186.0,-384.6,-177.6,-131.1,-30.6,-25.2,-38.7,592.8,-38.1,747.3,4756.8,-202.8,1459.8,-2121.0,-83.1,1.2,2.4,3165.0,-5188.2,-17.1,137.4,512.1,-178.8,0,984,0,75,
0.5500,-87.9,-193.2,-392.7,-185.4,-138.6,-39.6,-29.7,-44.1,592.8,-56.7,737.4,4747.5,-209.4,1451.7,-2144.1,-93.3,0.9,2.7,3151.8,-5200.2,-16.8,141.0,510.3,-177.6,0,990,0,76,
0.5533,-94.8,-194.4,-393.6,-182.7,-136.8,-36.9,-27.0,-42.0,222.3,-65.7,736.8,4735.5,-216.6,1450.8,-2171.7,-114.6,1.5,2.7,3138.0,-5201.4,-17.1,138.9,507.3,-182.7,0,996,0,77,
0.5567,-91.5,-194.4,-397.8,-190.8,-137.7,-41.4,-30.6,-48.0,-222.3,-51.9,733.8,4716.0,-212.4,1447.5,-2184.0,-108.9,1.2,2.7,3120.3,-5215.5,-16.8,137.1,508.8,-189.6,0,1002,0,78,
0.5600,-89.7,-198.9,-396.6,-190.2,-144.6,-44.4,-32.4,-47.4,74.1,-58.2,723.3,4692.6,-226.2,1441.2,-2152.2,-99.0,1.8,2.4,3123.9,-5218.2,-17.1,127.5,519.6,-196.2,0,1008,0,79,
0.5633,-91.2,-201.6,-391.2,-185.4,-139.5,-45.0,-29.7,-45.3,518.7,-62.7,726.0,4707.9,-219.0,1452.3,-2115.3,-76.8,1.2,2.4,3114.9,-5238.6,-16.8,133.2,523.5,-192.3,0,1014,0,80,
0.5667,-88.8,-199.2,-386.4,-180.9,-131.4,-35.4,-24.3,-42.6,444.6,-60.6,731.4,4736.1,-215.4,1457.4,-2114.7,-82.5,1.2,2.4,3113.4,-5234.7,-16.8,138.0,531.9,-195.6,0,1020,0,81,
0.5700,-90.6,-197.1,-382.5,-181.8,-131.1,-34.8,-26.7,-45.6,148.2,-56.4,729.9,4733.7,-211.5,1457.7,-2128.5,-92.7,1.2,2.1,3092.4,-5227.2,-16.5,133.5,532.5,-191.1,0,1026,0,82,
0.5733,-81.0,-188.4,-368.1,-167.7,-120.9,-29.4,-22.2,-34.5,-296.4,-31.2,748.8,4742.7,-201.9,1460.7,-2122.8,-105.0,1.2,2.1,3084.9,-5223.3,-16.8,138.9,528.9,-191.1,0,1032,0,83,
0.5767,-80.7,-185.4,-366.9,-164.7,-120.6,-26.7,-29.7,-33.3,-222.3,-27.0,749.1,4735.2,-195.6,1474.8,-2101.8,-94.5,1.2,2.4,3091.5,-5217.0,-17.1,142.5,533.4,-184.8,0,1038,0,84,
0.5800,-76.8,-180.9,-366.0,-164.4,-115.5,-22.2,-25.2,-27.6,296.4,-29.1,747.9,4729.2,-197.7,1476.0,-2050.2,-72.9,1.2,2.4,3086.1,-5215.2,-16.8,149.4,545.1,-178.2,0,1044,0,85,
0.5833,-71.7,-184.2,-367.2,-167.4,-120.6,-20.4,-25.8,-27.0,444.6,-36.9,744.3,4725.3,-199.5,1476.6,-2042.7,-72.3,0.9,2.1,3064.8,-5224.5,-16.8,151.2,532.8,-180.0,0,1050,0,86,
0.5867,-75.6,-180.9,-366.3,-170.4,-122.1,-22.8,-26.1,-27.9,74.1,-37.8,742.8,4714.5,-198.3,1472.4,-2039.7,-61.8,1.2,2.4,3058.2,-5224.8,-17.1,145.8,525.3,-176.1,0,1056,0,87,
0.5900,-74.7,-184.8,-367.2,-169.5,-117.6,-17.1,-22.2,-24.3,-592.8,-36.0,742.8,4708.5,-188.4,1474.5,-2043.0,-57.6,1.5,2.4,3046.8,-5214.0,-17.1,156.3,526.5,-173.1,0,1062,0,88,
0.5933,-73.5,-184.2,-364.2,-169.2,-122.4,-18.3,-20.4,-25.2,-444.6,-32.7,740.1,4706.1,-190.2,1474.2,-2039.4,-45.9,0.9,2.1,3046.2,-5232.9,-16.8,151.2,534.9,-177.6,0,1068,0,89,
0.5967,-68.1,-189.6,-363.0,-169.5,-117.6,-13.8,-17.4,-26.1,222.3,-29.7,744.3,4704.6,-192.9,1478.7,-2015.4,-26.7,1.2,2.1,3037.2,-5253.9,-16.8,152.4,532.2,-163.5,0,1074,0,90,
0.6000,-72.6,-189.9,-362.1,-174.3,-126.9,-22.2,-12.6,-28.5,296.4,-30.6,735.6,4691.1,-193.8,1474.8,-2046.6,-20.4,1.2,2.7,3015.9,-5256.0,-16.8,150.9,534.0,-167.1,0,1080,0,91,
0.6033,-73.8,-186.9,-368.4,-176.1,-129.3,-26.1,-14.4,-30.3,0.0,-48.3,724.2,4677.3,-192.0,1472.4,-2091.6,-36.9,1.5,2.4,2985.6,-5255.1,-17.1,139.2,524.4,-175.2,0,1086,0,92,
0.6067,-81.0,-189.3,-371.4,-174.9,-127.2,-27.6,-15.3,-35.7,-592.8,-37.5,726.6,4686.0,-186.9,1462.8,-2141.4,-34.8,1.2,2.7,2964.9,-5254.2,-16.8,147.3,525.3,-177.9,0,1092,0,93,
0.6100,-81.3,-191.4,-367.2,-170.7,-121.8,-23.1,-16.5,-33.9,-518.7,-34.8,731.7,4685.1,-189.0,1459.5,-2168.7,-17.1,1.2,2.4,2967.0,-5244.3,-17.1,147.3,535.5,-170.7,0,1098,0,94,
0.6133,-83.4,-187.5,-364.5,-167.1,-122.1,-25.2,-15.6,-30.9,148.2,-28.5,727.2,4674.3,-182.7,1466.4,-2163.3,6.6,1.5,2.7,2958.6,-5282.1,-16.8,153.9,540.0,-168.3,0,1104,0,95,
0.6167,-79.5,-186.9,-358.2,-159.9,-114.6,-17.1,-17.1,-29.1,296.4,-32.1,743.7,4677.6,-184.2,1462.5,-2172.9,5.1,1.5,2.7,2956.8,-5282.7,-16.8,154.2,539.4,-161.4,0,1110,0,96,
0.6200,-81.0,-191.4,-363.0,-162.3,-118.8,-18.6,-11.4,-33.0,0.0,-31.2,732.9,4685.4,-181.8,1456.2,-2202.6,-9.0,1.5,2.4,2940.3,-5236.5,-16.8,154.2,536.4,-160.2,0,1116,0,97,
0.6233,-82.2,-193.5,-369.3,-168.9,-125.7,-23.1,-12.9,-37.5,-444.6,-36.3,730.5,4684.2,-186.9,1460.4,-2232.6,-21.6,1.2,2.4,2917.5,-5244.3,-16.8,151.8,535.5,-170.1,0,1122,0,98,
0.6267,-82.2,-196.2,-371.4,-173.7,-132.9,-34.5,-17.4,-42.6,-518.7,-34.8,732.6,4660.2,-183.3,1455.0,-2235.9,-17.4,0.9,2.7,2930.1,-5257.2,-17.1,152.1,525.6,-170.4,0,1128,0,99,
0.6300,-82.8,-201.6,-379.2,-182.7,-135.6,-41.1,-24.3,-46.5,0.0,-52.5,702.6,4653.9,-192.9,1445.1,-2212.8,-6.9,1.2,2.1,2889.0,-5280.3,-16.8,137.4,515.4,-176.1,0,1134,0,100,
0.6333,-80.7,-203.4,-387.0,-186.9,-141.0,-37.5,-25.5,-43.8,222.3,-62.7,677.1,4660.5,-200.7,1444.5,-2219.4,-16.8,0.9,2.4,2872.8,-5288.7,-17.1,133.8,511.8,-175.2,0,1140,0,101,
0.6367,-78.3,-196.5,-384.3,-180.3,-137.4,-37.8,-25.2,-39.6,-148.2,-66.0,674.1,4645.2,-194.1,1444.8,-2227.5,-34.2,1.5,2.4,2879.7,-5301.9,-17.1,132.6,513.3,-179.1,0,1146,0,102,
0.6400,-76.2,-191.1,-374.4,-176.1,-130.8,-32.7,-23.1,-40.2,-518.7,-38.1,694.5,4655.7,-182.1,1449.9,-2238.0,-31.2,0.9,2.4,2902.5,-5290.5,-16.8,144.6,507.6,-176.4,0,1152,0,103,
0.6433,-77.1,-182.4,-363.3,-162.0,-112.5,-19.8,-18.6,-31.8,-518.7,-23.1,735.9,4695.6,-174.9,1458.0,-2240.4,-49.2,1.2,2.1,2940.3,-5254.5,-17.1,161.4,514.5,-159.0,0,1158,0,104,
0.6467,-75.6,-181.8,-369.9,-171.9,-123.0,-24.0,-27.9,-36.6,148.2,-6.0,709.8,4661.1,-173.1,1460.1,-2213.7,-39.0,1.2,2.1,2924.4,-5285.7,-16.8,150.9,506.1,-163.2,0,1164,0,105,
0.6500,-82.8,-190.2,-375.0,-179.7,-130.2,-31.8,-24.9,-45.9,296.4,-24.0,691.5,4645.5,-166.2,1458.0,-2214.9,-42.0,1.2,2.4,2894.7,-5304.6,-16.5,144.0,506.1,-177.9,0,1170,0,106,
0.6533,-81.6,-191.4,-380.7,-185.1,-137.7,-36.3,-32.1,-47.7,-148.2,-12.6,682.5,4638.6,-170.7,1454.4,-2231.4,-58.2,1.2,2.1,2898.3,-5311.2,-16.8,146.1,494.4,-180.9,0,1176,0,107,
0.6567,-83.7,-199.5,-393.0,-192.6,-147.0,-39.6,-29.7,-48.0,-444.6,-36.0,651.0,4605.6,-180.6,1445.7,-2244.9,-78.6,1.2,2.7,2876.1,-5331.6,-16.8,143.1,498.6,-187.5,0,1182,0,108,
0.6600,-90.3,-208.5,-395.7,-196.8,-148.2,-39.6,-35.4,-51.0,-444.6,-29.1,651.0,4608.3,-189.0,1437.0,-2242.5,-90.9,0.9,2.4,2872.2,-5324.1,-16.8,151.2,481.2,-183.0,0,1188,0,109,
0.6633,-88.5,-209.1,-396.3,-199.2,-151.8,-36.9,-32.4,-49.5,148.2,-33.9,647.7,4601.4,-187.8,1446.9,-2198.4,-66.3,1.5,2.7,2869.5,-5328.0,-16.8,150.3,486.0,-180.9,0,1194,0,110,
0.6667,-91.8,-211.5,-401.1,-203.7,-155.1,-43.5,-32.1,-52.5,296.4,-32.4,633.9,4596.6,-185.7,1430.7,-2200.5,-69.9,0.9,2.4,2838.6,-5340.0,-16.8,148.5,488.4,-185.4,0,1200,0,111,
0.6700,-92.7,-208.8,-400.8,-205.5,-161.1,-46.2,-27.0,-51.9,-74.1,-36.6,631.2,4586.4,-181.8,1443.0,-2200.5,-76.5,1.2,2.4,2828.1,-5352.0,-17.1,154.8,495.6,-194.7,0,1206,0,112,
0.6733,-94.8,-213.9,-405.9,-211.5,-167.7,-52.2,-23.1,-58.2,-370.5,-24.9,615.3,4576.2,-187.8,1429.8,-2203.5,-86.4,1.2,2.1,2789.7,-5373.9,-17.1,156.3,493.2,-197.1,0,1212,0,113,
0.6767,-98.1,-218.7,-410.7,-217.8,-172.8,-54.3,-23.7,-63.0,-518.7,-36.0,605.4,4560.3,-194.4,1420.8,-2192.4,-78.6,1.2,2.7,2788.8,-5392.8,-17.1,129.6,489.6,-202.2,0,1218,0,114,
0.6800,-99.6,-210.6,-403.8,-215.1,-170.7,-56.1,-20.7,-62.1,222.3,-41.4,610.2,4569.3,-192.9,1424.4,-2171.4,-53.4,0.9,2.4,2777.1,-5388.6,-17.4,132.6,496.2,-199.2,0,1224,0,115,
0.6833,-105.3,-223.5,-410.1,-218.7,-176.7,-57.0,-22.2,-65.7,370.5,-39.0,598.8,4558.8,-194.7,1413.0,-2175.0,-55.5,1.2,2.4,2745.0,-5392.8,-16.8,135.3,503.4,-200.4,0,1230,0,116,
0.6867,-99.6,-219.0,-411.0,-219.6,-178.5,-55.8,-18.0,-68.4,74.1,-30.0,598.5,4550.1,-189.0,1419.9,-2204.1,-77.1,1.5,2.4,2729.7,-5408.4,-16.8,148.2,501.0,-192.6,0,1236,0,117,
0.6900,-96.9,-223.5,-412.5,-223.8,-180.6,-56.4,-15.0,-68.7,-222.3,-41.7,594.9,4534.5,-185.7,1422.3,-2197.2,-75.9,0.6,2.4,2718.9,-5416.2,-16.8,135.6,501.0,-198.6,0,1242,0,118,
0.6933,-102.6,-224.7,-409.5,-219.9,-178.2,-53.4,-13.2,-67.8,-444.6,-37.8,599.4,4528.8,-189.9,1411.5,-2217.0,-98.7,1.2,2.1,2722.2,-5409.9,-17.4,147.9,504.0,-190.8,0,1248,0,119,
0.6967,-100.5,-224.7,-407.1,-216.9,-177.3,-53.7,-13.5,-68.4,296.4,-33.0,591.0,4518.0,-192.3,1411.2,-2176.5,-102.9,1.2,3.0,2758.2,-5402.7,-16.8,141.9,501.0,-196.5,0,1254,0,120,
0.7000,-97.2,-218.1,-406.2,-215.7,-179.7,-55.2,-18.9,-67.8,592.8,-29.7,595.8,4533.0,-193.8,1419.6,-2202.3,-46.5,1.5,2.4,2769.9,-5397.6,-16.8,152.4,491.7,-192.0,0,1260,0,121,
0.7033,-97.8,-217.2,-396.6,-210.3,-173.4,-51.9,-19.5,-63.9,222.3,-31.8,599.7,4548.3,-194.7,1411.8,-2204.1,-48.9,1.2,2.1,2754.6,-5401.5,-16.8,152.7,498.0,-192.9,0,1266,0,122,
0.7067,-101.1,-216.0,-396.0,-207.3,-173.1,-53.7,-18.3,-62.4,0.0,-37.8,598.2,4544.7,-192.0,1400.7,-2214.9,-56.7,1.2,2.1,2748.3,-5395.5,-17.1,164.4,490.5,-193.2,0,1272,0,123,
0.7100,-101.7,-216.6,-392.4,-203.7,-170.1,-50.7,-19.2,-60.9,-296.4,-47.7,594.9,4529.1,-192.9,1411.2,-2221.5,-89.1,1.2,2.7,2748.6,-5399.7,-17.1,142.2,479.1,-191.1,0,1278,0,124,
0.7133,-100.2,-209.1,-389.7,-204.3,-173.1,-48.3,-17.7,-56.4,518.7,-43.8,595.5,4536.6,-190.5,1404.9,-2171.1,-86.1,1.2,2.4,2742.6,-5393.4,-16.8,149.7,481.8,-186.0,0,1284,0,125,
0.7167,-98.4,-208.5,-388.2,-201.6,-164.1,-46.8,-16.2,-53.1,518.7,-40.5,597.6,4545.3,-191.7,1401.6,-2162.4,-93.3,1.2,2.4,2748.9,-5396.7,-16.8,138.0,477.6,-198.0,0,1290,0,126,
0.7200,-91.8,-202.8,-377.7,-190.5,-158.4,-46.5,-14.4,-48.9,370.5,-28.5,608.4,4556.1,-182.4,1406.4,-2177.1,-110.1,1.5,2.7,2753.4,-5402.7,-17.1,159.3,472.2,-189.0,0,1296,0,127,
0.7233,-90.6,-201.6,-373.8,-186.0,-152.1,-42.3,-12.0,-44.7,148.2,-29.1,614.4,4552.2,-167.7,1418.1,-2164.8,-125.7,1.5,2.7,2745.0,-5397.6,-17.1,151.2,464.4,-188.4,0,1302,0,128,
0.7267,-89.7,-202.5,-374.1,-185.1,-152.1,-39.0,-19.5,-41.7,-74.1,-29.4,606.3,4548.3,-174.9,1410.9,-2172.0,-145.2,1.5,2.1,2754.0,-5418.6,-16.8,157.2,446.7,-185.1,0,1308,0,129,
0.7300,-91.5,-204.0,-373.5,-184.2,-152.1,-37.5,-15.3,-43.2,518.7,-27.6,610.5,4564.5,-176.7,1418.4,-2130.3,-119.1,1.2,2.7,2748.9,-5451.0,-16.8,168.0,462.0,-177.9,0,1314,0,130,
0.7333,-93.3,-206.7,-381.6,-195.6,-157.8,-39.9,-18.3,-46.2,741.0,-37.5,596.1,4575.0,-195.0,1408.8,-2136.3,-115.8,1.2,2.4,2696.7,-5411.7,-16.5,151.2,452.4,-189.9,0,1320,0,131,
0.7367,-96.0,-210.0,-376.2,-192.3,-156.0,-38.7,-15.3,-46.5,444.6,-40.2,603.9,4606.2,-204.0,1400.4,-2143.8,-127.2,1.2,2.4,2673.3,-5417.4,-17.1,174.6,460.5,-186.3,0,1326,0,132,
0.7400,-93.9,-209.4,-380.4,-195.9,-159.3,-44.1,-18.0,-50.1,222.3,-47.7,587.1,4612.2,-198.6,1409.4,-2127.0,-113.7,1.2,2.4,2645.4,-5415.6,-16.8,157.2,459.6,-187.8,0,1332,0,133,
0.7433,-89.7,-207.9,-379.8,-189.9,-162.3,-42.9,-17.7,-48.9,0.0,-32.7,588.9,4606.8,-195.0,1411.8,-2112.9,-135.0,0.9,2.4,2654.4,-5400.3,-16.8,173.7,465.9,-192.3,0,1338,0,134,
0.7467,-88.2,-211.5,-379.2,-195.3,-166.5,-48.6,-21.9,-50.4,666.9,-39.0,591.6,4601.1,-193.5,1419.3,-2076.9,-111.9,0.9,2.4,2681.7,-5398.2,-17.1,174.0,470.7,-190.2,0,1344,0,135,
0.7500,-95.1,-221.4,-389.1,-202.5,-174.0,-55.8,-27.9,-56.1,741.0,-51.9,582.3,4602.0,-206.1,1406.4,-2072.7,-109.8,0.9,2.4,2675.4,-5425.5,-17.1,161.4,469.5,-190.2,0,1350,0,136,
0.7533,-94.8,-217.5,-386.7,-200.1,-172.8,-54.3,-19.8,-55.5,592.8,-39.0,577.8,4600.8,-206.4,1410.0,-2088.0,-98.1,1.2,2.7,2654.4,-5428.5,-16.8,160.5,472.5,-191.7,0,1356,0,137,
0.7567,-92.4,-219.6,-390.3,-200.7,-173.1,-54.3,-26.1,-56.7,444.6,-27.3,585.0,4598.1,-204.0,1411.2,-2070.9,-108.6,1.2,2.1,2640.6,-5434.2,-17.1,146.4,456.6,-198.9,0,1362,0,138,
0.7600,-92.7,-222.0,-396.9,-206.1,-176.1,-58.8,-26.4,-59.4,0.0,-44.4,578.1,4582.8,-202.8,1421.7,-2082.6,-114.0,1.2,2.1,2633.7,-5449.2,-16.8,148.8,444.9,-209.7,0,1368,0,139,
0.7633,-100.5,-225.0,-393.9,-206.7,-174.0,-53.4,-20.4,-61.5,592.8,-39.0,579.9,4562.7,-209.4,1402.5,-2058.0,-85.8,1.5,2.1,2630.4,-5453.7,-17.1,158.7,473.1,-197.7,0,1374,0,140,
0.7667,-109.2,-237.3,-406.8,-217.2,-178.2,-57.9,-23.4,-69.6,889.2,-44.7,567.9,4552.8,-219.3,1404.0,-2054.7,-75.0,0.9,2.7,2616.0,-5461.5,-16.8,157.8,481.5,-197.1,0,1380,0,141,
0.7700,-110.7,-238.8,-413.4,-224.7,-189.3,-66.0,-27.3,-75.0,666.9,-44.4,559.2,4542.6,-219.9,1397.7,-2042.7,-87.9,0.9,2.4,2613.9,-5493.6,-16.8,111.3,461.7,-220.8,0,1386,0,142,
0.7733,-114.9,-240.6,-414.9,-230.4,-187.8,-63.3,-28.5,-78.0,518.7,-59.4,561.9,4554.6,-223.5,1393.5,-2041.5,-78.9,1.5,3.0,2622.6,-5495.7,-17.1,138.3,466.8,-213.9,0,1392,0,143,
0.7767,-113.1,-240.6,-413.1,-227.7,-192.3,-68.7,-29.1,-74.7,-148.2,-47.4,561.3,4551.0,-228.9,1396.8,-2039.1,-90.3,0.9,2.1,2710.5,-5499.3,-16.8,134.7,460.8,-214.5,0,1398,0,144,
0.7800,-117.6,-245.7,-418.2,-235.5,-195.6,-71.7,-30.9,-80.1,815.1,-60.9,551.7,4529.7,-230.1,1393.5,-1990.2,-79.8,1.2,2.1,2732.4,-5513.1,-17.1,120.3,468.6,-213.6,0,1404,0,145,
0.7833,-115.8,-242.7,-414.3,-232.5,-197.1,-72.6,-29.4,-80.4,963.3,-55.2,561.0,4544.4,-233.4,1399.5,-1976.1,-67.5,0.9,2.1,2756.1,-5512.8,-17.4,129.6,466.8,-213.9,0,1410,0,146,
0.7867,-115.5,-244.5,-418.5,-234.6,-196.8,-70.5,-35.1,-80.7,815.1,-45.0,549.6,4539.6,-230.7,1403.4,-1977.6,-66.3,1.2,2.4,2764.2,-5520.6,-17.1,118.5,472.2,-216.6,0,1416,0,147,
0.7900,-112.2,-240.3,-412.5,-231.6,-197.1,-70.5,-31.2,-76.2,592.8,-46.5,557.1,4550.7,-228.6,1399.8,-1977.6,-69.0,1.5,2.4,2763.9,-5512.2,-16.8,135.9,467.1,-208.5,0,1422,0,148,
0.7933,-118.5,-250.8,-419.1,-237.3,-201.9,-70.2,-39.3,-81.6,0.0,-58.2,546.0,4532.4,-250.5,1390.2,-1992.6,-91.8,1.2,2.1,2719.8,-5520.9,-17.1,121.2,464.1,-209.4,0,1428,0,149,
0.7967,-105.9,-233.4,-408.3,-225.9,-195.3,-66.6,-36.3,-73.8,666.9,-57.9,561.0,4537.5,-243.6,1408.2,-1951.8,-58.2,1.5,2.7,2742.3,-5522.4,-16.8,131.1,460.8,-201.9,0,1434,0,150,
0.8000,-105.6,-237.0,-408.6,-222.6,-192.9,-65.4,-37.8,-71.7,963.3,-44.4,560.7,4542.0,-245.7,1407.3,-1928.7,-40.8,1.2,2.1,2728.8,-5533.8,-17.4,124.5,463.2,-204.9,0,1440,0,151,
0.8033,-102.9,-228.3,-399.0,-215.4,-182.1,-61.2,-38.1,-65.4,815.1,-34.5,566.1,4546.2,-240.6,1412.7,-1941.3,-53.4,1.5,2.4,2658.3,-5538.0,-16.8,129.6,458.1,-202.8,0,1446,0,152,
0.8067,-101.7,-231.9,-404.7,-219.6,-186.3,-67.2,-39.6,-65.7,518.7,-50.1,561.3,4540.2,-248.1,1419.3,-1950.3,-66.6,1.2,2.1,2630.7,-5542.2,-17.1,130.2,448.8,-210.0,0,1452,0,153,
0.8100,-102.0,-224.7,-406.5,-215.1,-189.0,-59.7,-38.4,-63.3,74.1,-51.3,561.9,4530.3,-243.6,1427.1,-1955.4,-88.2,1.2,2.4,2626.2,-5551.8,-16.8,123.3,446.1,-202.2,0,1458,0,154,
0.8133,-96.6,-222.6,-394.8,-208.8,-174.6,-59.1,-43.2,-61.5,741.0,-31.5,570.9,4539.6,-236.7,1423.5,-1927.2,-56.4,1.2,2.1,2624.1,-5543.4,-16.5,136.8,450.9,-210.9,0,1464,0,155,
0.8167,-97.2,-225.0,-401.7,-213.3,-186.0,-63.6,-49.2,-66.3,889.2,-64.5,557.1,4531.2,-246.3,1422.3,-1908.9,-52.5,1.5,2.1,2616.6,-5550.6,-16.8,136.2,441.0,-215.7,0,1470,0,156,
0.8200,-91.2,-218.1,-390.0,-204.9,-181.2,-57.3,-42.0,-55.8,741.0,-42.0,572.4,4537.5,-239.1,1425.9,-1923.3,-64.2,1.2,2.4,2639.1,-5547.6,-16.8,144.3,453.0,-207.0,0,1476,0,157,
0.8233,-86.7,-213.0,-394.2,-206.4,-182.1,-58.2,-43.2,-56.1,666.9,-39.0,566.7,4529.4,-235.5,1434.3,-1927.2,-72.3,0.9,2.4,2610.6,-5550.9,-16.8,135.9,446.4,-206.1,0,1482,0,158,
0.8267,-88.5,-222.0,-398.4,-205.8,-175.8,-59.4,-44.1,-51.9,-148.2,-56.4,559.2,4486.5,-246.9,1425.0,-1939.5,-80.7,0.9,2.4,2581.5,-5571.3,-17.1,145.8,447.6,-209.1,0,1488,0,159,
0.8300,-87.3,-220.2,-397.5,-208.8,-188.7,-57.6,-43.8,-52.2,815.1,-55.5,554.4,4475.4,-249.0,1425.6,-1916.1,-38.7,1.2,2.7,2571.9,-5572.8,-16.8,140.1,453.0,-201.9,0,1494,0,160,
0.8333,-89.1,-222.3,-397.8,-205.5,-170.1,-55.8,-44.4,-50.1,889.2,-62.1,549.9,4478.4,-261.6,1420.8,-1907.4,-41.4,1.5,2.1,2550.6,-5585.4,-17.1,144.0,457.2,-203.1,0,1500,0,161,
0.8367,-93.3,-224.7,-400.5,-210.3,-176.1,-55.5,-41.7,-53.4,666.9,-59.7,535.8,4480.2,-251.4,1418.4,-1932.0,-60.9,1.5,2.4,2548.5,-5607.9,-16.8,141.6,459.3,-203.4,0,1506,0,162,
0.8400,-96.3,-228.3,-401.1,-210.6,-177.0,-65.1,-48.6,-59.7,370.5,-50.7,552.0,4457.4,-251.1,1420.2,-1931.1,-57.0,1.5,1.8,2550.6,-5603.4,-17.1,134.1,447.0,-210.6,0,1512,0,163,
0.8433,-98.1,-225.6,-394.8,-206.1,-177.3,-67.5,-48.0,-58.2,-148.2,-34.8,579.6,4508.7,-244.5,1420.2,-1942.5,-60.6,1.2,2.1,2550.9,-5581.2,-16.8,131.4,441.6,-210.9,0,1518,0,164,
0.8467,-98.1,-226.2,-401.1,-210.3,-174.9,-64.8,-46.8,-60.3,518.7,-64.8,558.0,4446.0,-253.2,1426.2,-1931.7,-33.9,1.2,2.4,2519.1,-5666.1,-16.5,123.9,442.8,-213.0,0,1524,0,165,
0.8500,-102.9,-238.2,-405.9,-207.6,-180.0,-63.3,-39.6,-62.1,741.0,-73.5,539.1,4453.8,-267.3,1409.4,-1929.3,-24.3,1.5,2.4,2492.4,-5631.9,-16.8,130.5,454.8,-210.3,0,1530,0,166,
0.8533,-101.1,-226.5,-397.8,-206.4,-186.3,-61.5,-39.3,-58.8,518.7,-63.3,552.3,4532.7,-255.0,1408.2,-1952.1,-31.5,1.2,2.4,2500.8,-5598.6,-17.1,131.4,459.0,-195.0,0,1536,0,167,
0.8567,-106.8,-228.9,-396.3,-200.4,-188.4,-62.7,-41.1,-58.5,222.3,-58.5,562.2,4570.5,-259.5,1396.2,-1964.1,-39.9,1.2,2.4,2497.5,-5598.3,-16.8,135.0,466.8,-203.1,0,1542,0,168,
0.8600,-107.7,-223.5,-395.1,-201.6,-187.8,-63.3,-38.7,-59.4,-370.5,-63.0,549.9,4558.2,-261.3,1408.8,-1983.9,-45.3,1.2,2.4,2496.3,-5602.2,-16.5,130.8,458.7,-197.1,0,1548,0,169,
0.8633,-107.7,-225.0,-389.1,-195.0,-177.3,-54.9,-33.0,-56.7,444.6,-56.1,574.8,4564.2,-251.1,1407.6,-1955.1,-12.0,0.6,2.4,2481.3,-5584.2,-16.8,141.0,471.3,-193.2,0,1554,0,170,
0.8667,-106.5,-222.0,-391.2,-197.4,-173.7,-53.4,-29.4,-56.7,592.8,-65.4,574.5,4550.7,-255.3,1408.5,-1941.9,-13.8,1.2,2.7,2409.3,-5601.0,-17.1,144.0,472.8,-192.6,0,1560,0,171,
0.8700,-107.1,-229.2,-397.5,-200.1,-182.7,-59.4,-35.4,-56.4,666.9,-60.9,555.9,4533.3,-261.9,1399.2,-1952.1,-18.6,1.2,2.7,2367.6,-5618.7,-17.4,126.9,465.0,-195.6,0,1566,0,172,
0.8733,-108.0,-224.4,-387.3,-191.4,-173.7,-54.3,-35.7,-51.3,296.4,-54.9,565.5,4546.2,-255.6,1399.8,-1959.3,-28.8,0.9,2.4,2357.4,-5607.0,-17.1,146.4,466.8,-198.3,0,1572,0,173,
0.8767,-103.8,-218.4,-384.9,-185.4,-168.3,-49.8,-31.5,-47.1,-222.3,-50.7,570.6,4536.3,-252.6,1402.8,-1984.8,-51.0,1.2,2.4,2349.6,-5616.3,-16.8,137.1,466.2,-195.0,0,1578,0,174,
0.8800,-97.8,-216.9,-381.6,-188.1,-173.7,-51.9,-32.4,-48.0,370.5,-54.6,572.7,4505.1,-250.5,1412.1,-1950.6,-25.2,1.2,2.1,2338.8,-5641.5,-17.1,137.4,464.4,-205.5,0,1584,0,175,
0.8833,-97.5,-222.9,-385.2,-188.1,-171.6,-58.2,-34.8,-45.3,815.1,-55.8,565.5,4513.8,-250.2,1410.9,-1938.0,-14.1,1.2,2.4,2329.2,-5639.1,-16.8,130.2,456.9,-200.4,0,1590,0,176,
0.8867,-95.7,-226.8,-389.7,-188.7,-173.7,-52.8,-36.6,-47.1,592.8,-53.1,565.5,4513.2,-254.1,1403.7,-1930.5,-26.7,1.5,2.1,2317.2,-5634.9,-16.8,141.3,460.2,-198.3,0,1596,0,177,
0.8900,-93.3,-225.3,-393.6,-194.7,-174.9,-58.8,-36.3,-48.6,222.3,-49.5,561.3,4494.9,-247.8,1413.3,-1938.9,-31.5,1.5,2.4,2306.1,-5639.4,-17.1,145.8,449.7,-206.4,0,1602,0,178,
0.8933,-99.0,-234.0,-402.9,-203.4,-179.4,-64.2,-42.3,-53.4,-222.3,-51.0,552.0,4465.8,-261.3,1404.0,-1939.5,-47.7,1.5,2.7,2300.7,-5659.2,-16.8,134.1,440.1,-210.9,0,1608,0,179,
0.8967,-95.4,-230.4,-402.6,-204.3,-181.2,-68.7,-38.4,-53.4,444.6,-55.2,547.2,4472.4,-257.4,1409.4,-1899.9,-13.2,0.9,2.4,2297.7,-5683.8,-17.1,133.8,453.0,-213.0,0,1614,0,180,
0.9000,-102.6,-237.0,-410.4,-215.4,-198.0,-72.0,-46.2,-62.1,666.9,-65.1,540.9,4466.4,-259.2,1411.8,-1891.8,-17.4,1.2,2.1,2276.4,-5685.3,-16.8,125.7,445.5,-215.1,0,1620,0,181,
0.9033,-105.3,-242.4,-408.3,-220.2,-204.3,-76.2,-44.1,-66.9,370.5,-58.8,542.1,4449.0,-267.3,1410.9,-1908.6,-20.7,0.9,2.4,2258.1,-5684.4,-16.8,122.1,443.4,-217.5,0,1626,0,182,
0.9067,-104.4,-241.5,-411.0,-219.9,-204.3,-79.8,-49.8,-68.7,74.1,-63.9,534.6,4461.0,-267.3,1416.3,-1896.9,-9.3,1.2,2.7,2233.2,-5678.4,-17.1,121.5,438.9,-219.9,0,1632,0,183,
0.9100,-100.8,-238.2,-402.6,-210.6,-197.7,-72.6,-44.4,-60.3,-296.4,-56.4,546.9,4486.5,-263.1,1419.6,-1908.0,-19.5,1.5,2.4,2238.6,-5681.1,-17.1,126.6,447.3,-211.2,0,1638,0,184,
0.9133,-98.7,-234.0,-396.3,-204.0,-189.3,-62.1,-38.1,-54.0,296.4,-44.7,553.2,4489.5,-249.6,1424.1,-1863.6,12.3,1.2,2.1,2248.8,-5671.8,-17.1,136.8,464.4,-199.8,0,1644,0,185,
0.9167,-97.2,-231.6,-396.3,-202.2,-184.5,-66.9,-40.2,-57.0,444.6,-43.2,551.1,4483.2,-249.0,1424.7,-1858.2,-7.5,1.5,2.7,2239.8,-5676.0,-17.1,136.8,455.7,-204.3,0,1650,0,186,
0.9200,-102.3,-232.2,-397.5,-201.0,-184.8,-61.2,-37.2,-54.9,370.5,-48.9,550.2,4477.2,-246.6,1416.0,-1884.9,3.0,1.5,2.1,2230.8,-5674.5,-17.4,148.5,453.9,-193.2,0,1656,0,187,
0.9233,-111.9,-239.1,-405.6,-206.4,-183.3,-65.4,-35.7,-58.5,74.1,-54.6,546.9,4460.4,-268.8,1411.2,-1889.1,-14.4,0.9,2.7,2213.1,-5682.3,-17.1,147.3,451.5,-204.0,0,1662,0,188,
0.9267,-106.5,-237.9,-405.6,-207.3,-178.2,-62.7,-33.6,-55.5,-444.6,-60.3,543.9,4417.2,-263.1,1412.4,-1911.9,-22.8,1.5,2.4,2196.9,-5685.0,-17.1,128.4,462.3,-207.9,0,1668,0,189,
0.9300,-108.9,-240.3,-403.2,-207.0,-188.4,-64.5,-37.2,-56.4,222.3,-59.7,544.5,4414.5,-262.5,1417.2,-1897.8,-9.3,0.9,2.1,2187.6,-5685.9,-16.8,133.2,453.6,-212.1,0,1674,0,190,
0.9333,-113.7,-243.3,-409.8,-212.4,-191.1,-65.4,-33.3,-61.2,444.6,-72.9,534.9,4452.0,-271.5,1402.8,-1883.7,-10.5,1.5,2.4,2178.0,-5686.8,-17.1,120.9,464.4,-207.0,0,1680,0,191,
0.9367,-115.2,-241.2,-407.7,-210.3,-187.2,-69.6,-36.0,-59.4,444.6,-63.0,535.2,4462.8,-275.7,1398.3,-1898.1,-7.8,0.9,2.4,2169.0,-5678.4,-16.8,122.1,456.9,-200.4,0,1686,0,192,
0.9400,-116.1,-242.4,-413.4,-216.3,-189.9,-69.0,-38.1,-63.0,-74.1,-66.9,534.9,4459.8,-279.9,1391.4,-1905.0,-13.5,1.5,2.4,2161.8,-5689.2,-17.1,122.1,450.6,-213.6,0,1692,0,193,
0.9433,-113.7,-235.2,-409.5,-213.6,-190.8,-69.0,-40.5,-56.7,-370.5,-67.5,536.7,4452.0,-272.1,1392.9,-1919.4,-48.6,1.2,2.7,2162.1,-5696.7,-16.8,123.3,436.8,-207.9,0,1698,0,194,
0.9467,-121.2,-249.3,-423.6,-227.4,-202.5,-79.2,-45.0,-67.5,148.2,-77.1,522.0,4428.6,-284.7,1385.7,-1884.0,-18.0,1.5,2.1,2147.4,-5729.1,-16.8,106.5,444.9,-236.7,0,1704,0,195,
0.9500,-116.7,-247.8,-421.8,-222.9,-194.4,-78.3,-44.7,-63.6,592.8,-76.5,522.3,4399.8,-280.2,1388.7,-1877.4,-11.1,1.2,2.4,2125.5,-5722.2,-16.5,94.5,449.1,-234.0,0,1710,0,196,
0.9533,-114.3,-248.7,-423.3,-221.7,-195.9,-75.0,-41.1,-63.3,370.5,-74.1,522.0,4379.1,-284.4,1390.8,-1884.3,-3.6,0.9,2.7,2133.9,-5721.6,-17.1,118.8,450.6,-225.3,0,1716,0,197,
0.9567,-108.3,-237.9,-416.4,-215.1,-188.7,-69.6,-36.0,-56.7,0.0,-59.7,523.8,4433.1,-276.6,1400.4,-1891.5,-13.8,0.9,2.4,2123.4,-5710.2,-16.8,109.5,451.5,-210.0,0,1722,0,198,
0.9600,-101.7,-232.5,-412.5,-213.9,-186.9,-66.0,-33.6,-57.3,-296.4,-64.5,534.3,4476.6,-260.1,1417.8,-1877.1,-36.0,1.2,2.1,2137.8,-5713.2,-16.8,121.8,455.4,-204.3,0,1728,0,199,
0.9633,-105.0,-235.2,-410.7,-211.5,-190.8,-60.6,-35.4,-56.7,296.4,-55.5,534.6,4468.8,-261.6,1415.1,-1853.4,-9.6,1.2,2.7,2147.7,-5708.1,-17.1,129.0,463.2,-204.9,0,1734,0,200,
0.9667,-110.7,-241.5,-417.0,-215.1,-197.4,-68.7,-36.9,-63.0,666.9,-66.3,526.5,4453.8,-273.0,1413.6,-1820.7,7.8,1.2,2.7,2128.5,-5727.3,-16.8,117.6,461.1,-215.4,0,1740,0,201,
0.9700,-106.8,-235.5,-403.8,-213.0,-193.2,-62.1,-37.2,-58.8,296.4,-58.5,534.6,4447.8,-261.3,1416.0,-1832.7,-17.1,0.9,2.7,2133.9,-5725.2,-16.8,129.9,465.0,-208.2,0,1746,0,202,
0.9733,-107.1,-235.2,-400.5,-207.6,-190.2,-59.7,-34.2,-55.8,74.1,-60.6,540.0,4446.9,-265.2,1413.6,-1834.8,-11.7,1.2,2.4,2134.2,-5729.7,-16.8,126.9,478.8,-201.9,0,1752,0,203,
0.9767,-103.2,-229.5,-396.3,-205.5,-185.4,-53.7,-30.6,-51.9,-296.4,-50.7,544.2,4447.2,-259.2,1421.7,-1833.9,-21.9,0.9,2.4,2146.5,-5742.3,-17.4,148.2,484.8,-192.6,0,1758,0,204,
0.9800,-103.8,-228.9,-396.6,-201.3,-188.7,-54.0,-27.0,-51.3,370.5,-57.0,547.5,4450.5,-258.3,1421.4,-1783.8,11.1,1.5,2.4,2144.4,-5748.9,-16.8,148.8,485.1,-198.0,0,1764,0,205,
0.9833,-99.9,-229.2,-390.9,-197.7,-186.6,-57.0,-27.9,-49.8,592.8,-51.9,541.8,4447.5,-249.3,1423.5,-1774.8,30.0,1.2,2.7,2139.3,-5734.5,-17.1,153.6,482.4,-200.4,0,1770,0,206,
0.9867,-103.5,-217.8,-388.5,-193.5,-184.5,-54.9,-26.1,-48.0,444.6,-63.6,543.9,4447.5,-255.3,1429.8,-1778.7,24.9,1.2,3.0,2107.2,-5733.3,-17.1,155.1,489.6,-189.3,0,1776,0,207,
0.9900,-99.6,-222.6,-386.4,-191.1,-184.8,-55.5,-32.4,-48.0,148.2,-55.2,542.4,4437.3,-262.8,1423.2,-1779.6,5.1,1.2,2.7,2094.0,-5733.3,-17.1,169.5,488.4,-185.7,0,1782,0,208,
0.9933,-107.7,-231.3,-397.5,-202.8,-189.9,-60.3,-31.5,-54.0,-74.1,-77.4,526.2,4422.0,-276.3,1414.8,-1784.4,38.1,1.2,2.4,2072.4,-5742.3,-17.1,133.8,480.9,-201.0,0,1788,0,209,
0.9967,-101.7,-223.8,-386.4,-190.5,-180.3,-55.5,-32.7,-48.6,370.5,-58.2,540.0,4407.3,-257.7,1421.7,-1749.9,6.3,1.2,2.1,2077.8,-5743.8,-16.8,138.6,483.3,-202.5,0,1794,0,210,
1.0000,-97.2,-213.0,-379.5,-187.2,-178.5,-55.2,-33.9,-44.4,815.1,-52.2,547.5,4413.3,-244.2,1424.7,-1728.0,30.0,1.2,2.7,2073.9,-5749.2,-17.1,128.4,464.7,-212.1,0,1800,0,211,
1.0033,-96.3,-218.1,-379.5,-189.0,-170.7,-55.2,-41.4,-42.6,444.6,-50.7,546.9,4421.4,-252.9,1427.7,-1743.0,-16.5,1.2,2.4,2059.2,-5745.3,-16.5,108.6,448.2,-220.2,0,1806,0,212,
1.0067,-95.7,-219.9,-384.3,-192.9,-180.3,-60.3,-42.0,-44.4,296.4,-48.9,528.0,4429.5,-254.4,1428.3,-1744.5,-15.0,1.2,3.0,2052.3,-5762.7,-17.1,106.2,450.3,-208.8,0,1812,0,213,
1.0100,-99.0,-219.0,-381.0,-188.4,-178.2,-55.5,-38.4,-41.4,-148.2,-48.3,543.3,4426.5,-253.2,1414.2,-1761.6,-26.4,1.5,2.4,2051.7,-5769.3,-16.8,107.7,446.7,-214.2,0,1818,0,214,
1.0133,-98.1,-218.7,-377.1,-189.0,-174.3,-51.0,-35.7,-41.1,518.7,-51.9,548.7,4430.1,-251.7,1414.2,-1734.0,-13.5,0.9,2.4,2066.4,-5721.0,-16.8,121.5,460.8,-205.2,0,1824,0,215,
1.0167,-99.0,-219.3,-381.6,-189.6,-176.7,-56.4,-33.3,-42.0,666.9,-46.8,542.1,4420.2,-259.8,1412.7,-1725.9,4.8,1.2,2.4,2063.4,-5730.6,-17.1,116.1,462.6,-210.3,0,1830,0,216,
1.0200,-101.4,-219.9,-374.1,-191.7,-174.3,-57.0,-32.7,-42.0,444.6,-47.7,545.1,4407.3,-259.5,1412.7,-1740.6,-2.1,1.2,2.4,2056.2,-5724.0,-17.1,106.8,459.9,-220.8,0,1836,0,217,
1.0233,-102.9,-225.0,-381.3,-192.3,-158.4,-56.7,-36.3,-47.7,148.2,-48.6,537.0,4373.7,-264.9,1410.3,-1765.2,-28.8,1.2,2.1,2081.7,-5751.6,-17.1,109.2,466.2,-212.1,0,1842,0,218,
1.0267,-105.0,-223.5,-381.0,-195.6,-167.7,-57.9,-37.5,-52.2,-148.2,-53.7,538.5,4338.6,-262.8,1408.5,-1770.6,-36.3,1.2,2.7,2147.7,-5751.0,-16.5,110.4,475.2,-221.7,0,1848,0,219,
1.0300,-105.9,-227.4,-387.0,-196.5,-175.2,-62.7,-36.9,-56.1,444.6,-53.7,533.7,4365.6,-272.1,1409.1,-1758.6,-25.8,1.2,2.7,2156.4,-5744.1,-17.1,105.6,483.9,-216.0,0,1854,0,220,
1.0333,-103.2,-230.1,-390.3,-200.4,-186.9,-66.9,-35.7,-62.4,741.0,-63.0,528.9,4411.8,-275.4,1404.6,-1745.1,-28.2,1.2,2.1,2178.9,-5754.9,-16.8,109.8,478.2,-225.9,0,1860,0,221,
1.0367,-104.7,-236.7,-395.1,-206.4,-188.4,-71.1,-43.5,-66.3,518.7,-63.6,516.6,4412.7,-276.6,1398.9,-1761.9,-38.4,1.5,2.4,2179.8,-5764.2,-17.1,100.8,478.2,-234.9,0,1866,0,222,
1.0400,-102.6,-231.0,-390.3,-204.3,-190.2,-69.9,-40.5,-60.0,148.2,-62.1,519.3,4416.3,-277.2,1410.6,-1774.8,-37.2,1.2,2.7,2177.7,-5769.3,-17.1,117.6,485.4,-225.0,0,1872,0,223,
1.0433,-100.8,-226.5,-385.5,-200.7,-183.3,-62.4,-41.7,-54.6,-148.2,-71.4,524.4,4415.1,-274.8,1418.7,-1788.6,-46.5,1.2,2.7,2180.4,-5760.9,-17.1,117.6,484.5,-225.0,0,1878,0,224,
1.0467,-101.4,-233.7,-386.7,-199.8,-184.2,-63.0,-36.9,-53.7,370.5,-64.5,521.1,4398.3,-281.1,1411.8,-1766.7,-18.3,1.5,2.4,2179.8,-5764.8,-16.8,106.5,494.7,-225.9,0,1884,0,225,
1.0500,-97.5,-228.6,-382.2,-199.2,-181.8,-64.2,-36.9,-50.4,815.1,-62.4,521.7,4385.7,-271.5,1422.9,-1738.5,-8.4,1.2,2.7,2161.5,-5763.0,-17.1,111.9,488.7,-221.7,0,1890,0,226,
1.0533,-94.8,-224.1,-378.0,-192.0,-180.6,-58.2,-35.1,-48.6,518.7,-62.7,535.2,4400.1,-268.8,1428.9,-1733.1,-24.6,1.2,2.4,2153.1,-5743.2,-16.5,115.8,492.9,-217.5,0,1896,0,227,
1.0567,-95.7,-218.1,-375.6,-189.9,-182.7,-55.5,-31.8,-46.8,74.1,-36.3,534.9,4395.3,-260.7,1436.1,-1728.0,-13.5,1.5,2.4,2144.1,-5747.7,-16.8,120.6,493.5,-211.8,0,1902,0,228,
1.0600,-94.5,-219.0,-380.4,-195.6,-176.1,-57.9,-33.9,-48.3,-148.2,-37.5,531.3,4383.6,-262.5,1440.6,-1717.8,-26.7,1.2,2.4,2139.6,-5772.6,-16.8,120.0,503.1,-212.4,0,1908,0,229,
1.0633,-90.9,-219.9,-371.7,-187.2,-169.2,-52.8,-31.8,-48.9,444.6,-29.7,540.3,4393.5,-264.3,1443.6,-1693.5,16.2,1.2,2.4,2162.7,-5757.9,-17.1,131.7,509.1,-205.2,0,1914,0,230,
1.0667,-93.3,-219.0,-374.4,-192.0,-176.7,-54.6,-36.0,-46.2,666.9,-46.2,537.9,4382.7,-263.4,1437.9,-1679.7,32.1,1.2,2.4,2165.7,-5767.2,-17.1,116.4,508.8,-208.8,0,1920,0,231,
1.0700,-90.9,-221.1,-375.9,-192.3,-175.5,-55.2,-32.7,-44.4,518.7,-54.6,528.6,4377.9,-271.5,1437.3,-1670.4,23.4,0.9,2.4,2147.7,-5771.4,-16.8,120.0,497.4,-206.1,0,1926,0,232,
1.0733,-84.6,-213.0,-370.5,-189.3,-170.1,-48.6,-28.5,-41.1,74.1,-44.1,532.8,4381.2,-261.6,1442.7,-1692.9,6.9,1.5,2.1,2122.8,-5761.8,-17.4,120.9,496.5,-207.9,0,1932,0,233,
1.0767,-87.3,-216.3,-371.4,-185.7,-166.2,-42.9,-28.8,-39.3,-222.3,-42.9,540.6,4397.7,-264.3,1431.3,-1703.7,19.2,0.9,2.4,2114.7,-5770.5,-17.1,143.7,495.9,-186.0,0,1938,0,234,
1.0800,-87.3,-217.2,-373.2,-191.1,-172.2,-47.1,-33.3,-42.0,296.4,-44.1,530.7,4389.6,-265.8,1436.4,-1676.1,31.2,1.5,2.1,2115.0,-5787.3,-16.8,120.9,499.2,-205.2,0,1944,0,235,
1.0833,-93.0,-225.0,-381.0,-198.9,-177.9,-46.8,-32.1,-49.8,666.9,-52.5,523.5,4381.2,-273.6,1425.6,-1649.7,29.7,1.2,3.0,2094.9,-5788.8,-17.1,138.0,481.5,-192.6,0,1950,0,236,
1.0867,-93.6,-225.9,-378.3,-196.2,-173.1,-48.3,-33.3,-45.0,444.6,-51.6,528.0,4376.4,-277.2,1420.2,-1657.8,26.4,1.2,2.1,2103.6,-5794.8,-16.8,119.4,475.2,-199.8,0,1956,0,237,
1.0900,-96.6,-221.1,-374.1,-197.7,-176.1,-50.7,-38.7,-51.9,148.2,-46.8,533.4,4371.9,-270.9,1431.6,-1661.1,22.8,1.2,2.7,2095.8,-5793.0,-16.8,121.5,475.5,-204.0,0,1962,0,238,
1.0933,-100.8,-232.5,-381.0,-196.5,-179.4,-59.4,-40.8,-53.1,-370.5,-46.2,525.3,4375.5,-284.4,1425.3,-1676.4,11.1,1.2,2.1,2091.3,-5786.7,-17.1,128.4,468.3,-204.6,0,1968,0,239,
1.0967,-99.9,-236.1,-390.9,-204.9,-186.6,-65.7,-46.5,-59.4,370.5,-68.7,513.6,4329.0,-289.2,1422.0,-1652.1,29.7,1.2,2.4,2085.0,-5798.4,-17.1,114.6,468.9,-214.5,0,1974,0,240,
1.1000,-102.3,-234.9,-388.8,-203.1,-180.9,-63.6,-44.4,-58.2,815.1,-55.5,513.0,4319.1,-282.9,1422.3,-1659.0,30.6,1.5,2.4,2086.5,-5813.4,-17.1,125.4,463.5,-212.4,0,1980,0,241,
1.1033,-99.3,-229.2,-382.8,-195.0,-171.9,-56.7,-40.8,-49.5,370.5,-65.7,515.4,4357.5,-281.4,1426.2,-1677.6,19.5,1.5,2.4,2073.0,-5787.3,-17.1,148.5,464.1,-203.1,0,1986,0,242,
1.1067,-99.9,-231.6,-382.5,-192.3,-175.8,-55.2,-42.6,-49.2,0.0,-60.0,523.8,4366.8,-292.5,1422.3,-1676.4,22.2,0.9,2.7,2064.0,-5784.3,-16.8,137.7,456.9,-202.8,0,1992,0,243,
1.1100,-91.5,-223.5,-377.4,-189.6,-171.9,-56.7,-40.2,-46.8,-296.4,-51.9,525.9,4366.5,-275.7,1430.7,-1671.6,10.8,1.2,2.1,2074.2,-5794.5,-16.8,125.1,454.2,-201.6,0,1998,0,244,
1.1133,-95.4,-224.1,-379.2,-189.0,-168.6,-53.1,-39.6,-49.2,444.6,-50.4,526.2,4366.8,-282.3,1434.0,-1638.9,31.5,1.2,2.1,2058.9,-5817.0,-17.4,135.3,462.3,-195.6,0,2004,0,245,
1.1167,-92.1,-216.9,-378.0,-186.3,-161.1,-50.1,-39.0,-48.3,518.7,-41.4,531.3,4373.1,-279.0,1432.5,-1635.9,32.7,1.5,2.4,2051.7,-5844.3,-16.8,142.5,467.7,-193.2,0,2010,0,246,
1.1200,-98.7,-227.1,-378.9,-187.8,-161.7,-53.1,-39.3,-50.1,444.6,-46.2,534.6,4363.5,-277.8,1432.2,-1660.5,36.6,1.2,2.4,2037.6,-5825.7,-16.8,133.8,467.7,-195.0,0,2016,0,247,
1.1233,-94.8,-222.3,-376.2,-188.7,-168.6,-53.1,-39.3,-51.6,-74.1,-43.8,536.7,4357.8,-272.1,1433.7,-1667.7,30.3,1.2,2.1,2031.6,-5771.1,-16.8,143.4,463.5,-198.0,0,2022,0,248,
1.1267,-96.9,-220.5,-376.2,-186.3,-172.8,-59.7,-40.8,-50.7,-222.3,-40.5,532.2,4318.8,-272.7,1434.9,-1647.9,22.5,1.2,2.4,2028.3,-5789.4,-16.5,135.0,464.7,-201.6,0,2028,0,249,
1.1300,-96.0,-215.1,-370.5,-179.4,-156.0,-52.5,-40.5,-48.3,370.5,-40.5,541.8,4321.5,-269.7,1438.8,-1624.5,39.6,1.2,2.1,2028.3,-5795.7,-16.8,143.4,471.9,-193.5,0,2034,0,250,
1.1333,-99.9,-225.3,-378.0,-187.8,-172.2,-61.5,-42.0,-52.8,518.7,-42.0,535.2,4350.6,-269.4,1433.1,-1641.3,33.6,0.9,1.8,2008.8,-5794.5,-17.1,141.0,462.3,-204.6,0,2040,0,251,
1.1367,-98.7,-222.0,-378.9,-187.2,-169.2,-58.8,-44.4,-54.6,444.6,-31.5,528.3,4340.1,-267.0,1438.8,-1632.6,39.0,1.2,2.1,1992.3,-5790.3,-17.1,137.4,449.4,-200.4,0,2046,0,252,
1.1400,-96.0,-222.0,-378.9,-188.1,-167.4,-56.4,-42.3,-50.4,0.0,-32.7,529.5,4313.1,-273.9,1435.2,-1635.6,39.0,1.2,2.7,1988.7,-5820.3,-16.8,140.1,445.2,-200.4,0,2052,0,253,
1.1433,-96.6,-224.4,-380.4,-181.8,-135.9,-54.9,-42.9,-48.0,-370.5,-51.6,519.9,4221.9,-272.7,1427.7,-1652.1,24.0,1.5,2.1,1982.7,-5851.8,-16.8,136.2,436.8,-196.2,0,2058,0,254,
1.1467,-96.0,-225.6,-385.8,-183.6,-150.6,-62.4,-39.0,-50.7,222.3,-56.1,506.4,4239.9,-275.7,1438.8,-1620.3,48.6,1.2,2.4,1967.4,-5796.0,-16.8,121.2,439.2,-202.8,0,2064,0,255,
1.1500,-97.5,-228.6,-387.3,-193.2,-162.0,-59.4,-40.5,-53.7,518.7,-53.1,513.0,4296.6,-281.1,1434.0,-1622.7,53.1,0.9,2.4,1955.4,-5854.8,-16.8,126.0,445.8,-203.4,0,2070,0,0,
1.1533,-101.1,-229.2,-387.9,-193.8,-182.4,-64.5,-47.4,-47.7,296.4,-54.6,505.5,4351.2,-289.2,1420.2,-1635.0,48.6,1.2,2.4,1930.2,-5852.1,-16.8,116.1,439.8,-213.0,0,2076,0,1,
1.1567,-102.3,-230.1,-392.7,-198.9,-184.2,-60.9,-44.7,-48.6,-74.1,-74.7,475.5,4329.9,-288.9,1415.7,-1629.9,23.7,0.9,2.1,1899.3,-5866.2,-16.8,117.3,439.8,-205.8,0,2082,0,2,
1.1600,-100.2,-234.3,-387.6,-199.5,-194.4,-61.8,-48.0,-52.2,-370.5,-74.1,497.4,4366.5,-287.4,1428.0,-1628.4,28.2,0.9,2.1,1917.9,-5799.6,-17.1,115.2,439.5,-208.2,0,2088,0,3,
1.1633,-108.3,-233.7,-388.5,-201.3,-194.1,-69.0,-52.5,-56.4,222.3,-65.7,511.2,4384.8,-283.2,1415.4,-1615.8,41.4,1.2,2.4,1931.4,-5807.1,-16.8,111.3,436.2,-204.3,0,2094,0,4,
1.1667,-99.0,-222.6,-376.5,-189.6,-184.2,-66.3,-46.2,-48.0,444.6,-46.5,525.3,4380.0,-280.5,1429.8,-1618.8,22.8,1.2,2.4,1933.5,-5816.4,-16.8,127.5,436.5,-209.1,0,2100,0,5,
1.1700,-92.4,-211.8,-368.1,-184.5,-171.9,-56.4,-40.5,-44.4,370.5,-39.9,543.9,4377.6,-269.7,1437.9,-1616.1,22.8,0.9,2.7,1928.1,-5780.7,-17.1,134.7,438.0,-202.8,0,2106,0,6,
1.1733,-95.1,-217.5,-374.1,-189.0,-177.9,-60.3,-46.5,-52.5,0.0,-40.8,552.0,4403.1,-274.5,1436.4,-1617.6,3.6,0.9,2.4,1910.1,-5780.7,-17.1,137.4,433.2,-200.4,0,2112,0,7,
1.1767,-91.8,-221.7,-381.0,-193.8,-169.8,-61.2,-45.6,-56.1,-370.5,-52.5,543.3,4326.6,-279.0,1444.8,-1622.7,9.3,0.9,2.4,1888.2,-5786.1,-16.8,138.9,425.7,-200.7,0,2118,0,8,
1.1800,-93.6,-221.4,-379.2,-186.9,-143.4,-53.7,-43.2,-50.1,74.1,-59.7,540.9,4266.0,-281.1,1437.9,-1617.0,18.0,1.5,2.4,1895.7,-5802.6,-16.8,134.4,432.3,-200.4,0,2124,0,9,
1.1833,-96.3,-221.7,-371.4,-185.7,-141.6,-48.9,-40.2,-51.3,444.6,-48.3,558.0,4339.8,-279.6,1430.4,-1608.6,37.2,1.2,3.0,1883.1,-5790.6,-16.8,138.9,436.8,-189.9,0,2130,0,10,
1.1867,-95.1,-227.7,-374.1,-181.8,-153.0,-58.5,-41.1,-48.6,222.3,-49.2,558.6,4347.3,-283.8,1430.4,-1608.9,27.9,1.2,2.4,1865.7,-5778.6,-17.1,137.4,446.4,-195.6,0,2136,0,11,
1.1900,-97.2,-225.3,-376.2,-180.9,-139.5,-53.4,-38.4,-46.5,0.0,-56.1,554.4,4279.2,-275.7,1422.6,-1644.9,5.1,1.2,2.4,1854.9,-5791.8,-16.8,124.2,438.3,-196.5,0,2142,0,12,
1.1933,-100.8,-230.1,-383.4,-191.4,-168.6,-60.6,-42.6,-52.2,-296.4,-69.0,553.2,4372.5,-292.5,1420.2,-1655.4,-1.2,0.9,2.7,1842.6,-5747.7,-17.1,139.8,434.1,-199.5,0,2148,0,13,
1.1967,-99.0,-229.8,-378.3,-188.4,-167.4,-56.7,-34.5,-50.1,370.5,-54.0,559.5,4440.0,-285.0,1425.9,-1613.4,27.9,1.5,2.4,1845.0,-5806.8,-17.1,139.8,445.8,-194.7,0,2154,0,14,
1.2000,-102.0,-231.6,-380.1,-187.2,-170.1,-60.6,-40.5,-53.4,592.8,-57.6,549.0,4433.1,-285.3,1427.4,-1623.6,21.6,0.9,2.4,1837.8,-5821.5,-16.8,116.1,450.3,-194.4,0,2160,0,15,
1.2033,-105.0,-238.2,-383.7,-195.9,-186.6,-67.2,-45.0,-58.2,518.7,-57.3,544.5,4419.9,-291.9,1423.8,-1617.6,8.4,1.2,2.7,1811.1,-5771.4,-16.8,123.9,444.6,-198.6,0,2166,0,16,
1.2067,-104.1,-237.9,-381.0,-192.0,-176.4,-65.4,-42.9,-51.3,-148.2,-57.6,550.5,4415.1,-288.6,1425.9,-1640.1,-3.6,0.9,2.1,1813.8,-5754.6,-17.1,129.3,443.7,-195.6,0,2172,0,17,
1.2100,-106.8,-235.5,-384.0,-191.4,-167.1,-65.7,-44.7,-50.4,-222.3,-73.5,538.8,4388.7,-295.8,1412.1,-1654.5,-12.9,1.5,2.4,1811.4,-5744.7,-17.4,127.8,432.3,-201.9,0,2178,0,18,
1.2133,-102.0,-229.5,-382.5,-195.6,-184.5,-70.5,-48.0,-48.3,296.4,-74.4,541.5,4411.8,-290.4,1427.7,-1618.8,-7.8,1.2,2.7,1814.4,-5758.8,-16.8,117.3,431.1,-207.3,0,2184,0,19,
1.2167,-106.2,-237.9,-379.5,-195.3,-185.1,-72.3,-47.7,-51.0,592.8,-73.2,542.1,4422.0,-298.5,1415.4,-1636.2,-14.1,1.2,2.4,1800.6,-5753.1,-16.8,125.1,442.2,-212.7,0,2190,0,20,
1.2200,-103.8,-236.4,-376.5,-187.5,-176.7,-65.1,-45.3,-48.3,370.5,-59.7,539.1,4405.5,-291.9,1423.5,-1642.5,-33.3,1.2,2.4,1777.5,-5760.6,-16.8,131.4,441.6,-201.3,0,2196,0,21,
1.2233,-95.4,-225.3,-374.1,-183.6,-172.2,-58.2,-44.1,-45.0,-74.1,-50.7,548.1,4373.1,-279.3,1425.9,-1638.6,-37.5,0.9,2.4,1768.8,-5778.6,-17.1,133.8,440.7,-195.6,0,2202,0,22,
1.2267,-86.1,-217.5,-366.3,-176.7,-162.3,-48.3,-38.4,-36.6,-222.3,-50.7,553.2,4374.6,-271.5,1430.7,-1650.6,-41.1,1.2,2.7,1772.4,-5773.8,-17.1,148.8,444.6,-179.7,0,2208,0,23,
1.2300,-90.3,-214.5,-370.2,-177.9,-164.4,-49.5,-38.7,-31.2,444.6,-61.2,538.5,4352.4,-270.6,1430.4,-1635.0,-38.1,0.9,2.4,1761.3,-5786.1,-17.1,139.8,450.9,-190.5,0,2214,0,24,
1.2333,-90.6,-212.7,-366.9,-178.5,-166.2,-53.1,-39.9,-32.7,518.7,-63.6,546.6,4353.3,-267.9,1430.7,-1616.7,-45.6,1.5,2.1,1760.1,-5779.5,-16.8,129.6,444.0,-193.5,0,2220,0,25,
1.2367,-87.6,-217.2,-369.6,-175.2,-167.4,-50.7,-40.5,-32.4,296.4,-55.5,546.9,4352.4,-276.3,1437.0,-1620.6,-31.8,0.9,2.1,1755.6,-5770.5,-17.1,129.3,453.9,-190.5,0,2226,0,26,
1.2400,-90.6,-223.8,-378.6,-183.9,-172.2,-58.8,-42.9,-39.6,74.1,-74.1,541.2,4350.3,-270.0,1432.8,-1641.0,-48.0,1.5,2.1,1748.1,-5774.4,-16.8,132.9,445.8,-194.1,0,2232,0,27,
1.2433,-95.4,-232.5,-381.0,-186.0,-173.1,-61.5,-41.4,-43.8,-296.4,-72.9,534.3,4314.3,-283.2,1425.3,-1637.1,-54.0,0.6,2.1,1734.9,-5786.1,-17.1,123.3,429.3,-207.6,0,2238,0,28,
1.2467,-98.4,-234.3,-386.1,-188.4,-172.5,-64.2,-45.6,-50.4,222.3,-87.9,525.9,4299.0,-284.1,1420.8,-1601.1,-34.2,1.2,2.1,1720.8,-5798.7,-16.8,113.7,432.9,-200.7,0,2244,0,29,
1.2500,-95.1,-230.7,-379.2,-183.3,-167.1,-60.3,-42.6,-48.3,666.9,-61.8,531.9,4315.8,-277.8,1417.8,-1608.0,-44.1,1.2,2.7,1718.1,-5800.5,-17.1,116.7,430.8,-206.1,0,2250,0,30,
1.2533,-98.7,-228.0,-375.3,-182.1,-172.2,-56.4,-42.3,-42.6,444.6,-69.0,537.3,4314.0,-279.6,1410.3,-1619.4,-47.7,1.5,2.7,1707.6,-5784.6,-17.1,129.9,438.6,-201.6,0,2256,0,31,
1.2567,-92.4,-221.7,-369.9,-177.6,-167.1,-56.1,-41.7,-37.5,-74.1,-63.0,541.5,4315.5,-273.0,1416.6,-1615.2,-46.2,0.9,2.7,1689.3,-5787.0,-16.8,128.4,444.0,-196.5,0,2262,0,32,
1.2600,-95.7,-217.5,-364.8,-172.5,-159.3,-48.3,-33.9,-31.8,-296.4,-73.8,543.9,4330.5,-271.5,1413.9,-1624.2,-54.6,1.2,2.4,1689.3,-5770.5,-16.8,139.2,449.4,-185.4,0,2268,0,33,
1.2633,-99.0,-224.4,-374.7,-181.2,-165.3,-51.9,-35.1,-38.4,148.2,-63.6,525.3,4296.9,-276.0,1417.5,-1608.3,-41.4,1.5,2.7,1688.7,-5789.4,-17.1,121.8,439.8,-200.7,0,2274,0,34,
1.2667,-102.0,-221.4,-376.5,-172.5,-151.5,-51.0,-39.0,-36.3,444.6,-75.0,525.3,4264.5,-275.1,1417.2,-1607.1,-42.9,0.9,2.1,1691.1,-5779.5,-16.8,127.5,447.9,-194.7,0,2280,0,35,
1.2700,-102.0,-223.2,-378.3,-183.3,-170.4,-54.6,-40.5,-43.5,444.6,-68.7,530.4,4320.6,-276.0,1415.1,-1603.2,-33.3,1.5,1.8,1674.0,-5788.5,-16.8,120.9,455.4,-197.1,0,2286,0,36,
1.2733,-106.5,-234.6,-388.2,-190.8,-171.9,-61.5,-45.9,-48.9,0.0,-77.7,520.8,4289.1,-279.9,1407.3,-1606.8,-56.7,0.9,2.7,1660.5,-5822.7,-16.8,119.1,437.4,-202.2,0,2292,0,37,
1.2767,-103.5,-232.5,-388.5,-192.9,-170.4,-56.4,-41.4,-47.7,-296.4,-69.6,518.4,4238.4,-273.9,1411.5,-1604.1,-40.2,1.2,2.1,1655.1,-5842.2,-16.8,124.2,435.3,-200.7,0,2298,0,38,
1.2800,-107.1,-235.8,-395.1,-200.7,-186.3,-65.7,-43.8,-48.9,296.4,-81.9,515.4,4280.4,-282.0,1409.1,-1584.3,-21.3,1.2,2.4,1655.4,-5816.7,-17.1,108.3,435.9,-208.2,0,2304,0,39,
1.2833,-108.9,-234.6,-390.6,-197.4,-189.0,-63.0,-39.6,-50.7,666.9,-59.7,516.6,4328.7,-276.9,1413.0,-1581.9,-13.5,0.9,2.1,1657.2,-5811.3,-16.8,124.8,449.1,-196.8,0,2310,0,40,
1.2867,-100.8,-228.3,-383.1,-189.6,-177.6,-58.2,-35.7,-47.4,222.3,-55.5,529.2,4338.6,-270.6,1420.2,-1586.1,-26.1,1.2,2.4,1659.6,-5790.3,-16.5,142.8,447.0,-189.3,0,2316,0,41,
1.2900,-101.4,-228.6,-381.9,-186.0,-173.4,-53.4,-33.3,-48.6,-74.1,-54.9,527.7,4306.2,-266.1,1419.6,-1594.5,-5.7,1.2,2.4,1659.3,-5782.5,-16.8,135.0,452.7,-185.7,0,2322,0,42,
1.2933,-103.2,-220.8,-381.0,-187.2,-176.7,-55.2,-33.6,-48.3,-222.3,-46.2,529.5,4341.6,-258.6,1419.6,-1595.7,-16.8,1.2,2.7,1647.9,-5776.8,-17.1,130.5,454.5,-185.1,0,2328,0,43,
1.2967,-102.0,-219.6,-377.4,-185.7,-173.7,-51.3,-30.9,-50.4,370.5,-48.9,536.4,4336.8,-256.8,1428.0,-1588.2,-6.0,1.2,2.7,1652.7,-5763.3,-16.8,140.7,470.1,-181.2,0,2334,0,44,
1.3000,-102.0,-218.4,-379.5,-182.4,-172.5,-54.6,-33.0,-49.5,518.7,-49.5,525.3,4332.0,-259.5,1431.3,-1577.7,-16.8,1.2,2.7,1645.5,-5778.6,-17.1,135.9,453.3,-190.2,0,2340,0,45,
1.3033,-102.0,-226.2,-388.5,-189.0,-177.0,-57.6,-34.5,-53.4,370.5,-42.9,522.3,4337.7,-257.1,1432.8,-1572.9,-8.4,1.2,2.7,1641.6,-5786.7,-16.8,129.6,453.0,-194.1,0,2346,0,46,
1.3067,-99.6,-220.2,-383.4,-186.3,-171.0,-57.0,-36.0,-52.8,-222.3,-31.2,527.1,4317.0,-253.2,1442.7,-1573.8,-25.2,1.2,2.4,1644.3,-5792.4,-16.8,132.9,444.9,-189.9,0,2352,0,47,
1.3100,-95.1,-216.9,-381.6,-181.8,-168.6,-52.2,-28.2,-48.0,-222.3,-41.7,531.0,4314.0,-255.9,1445.7,-1580.1,-16.5,1.2,2.7,1634.1,-5787.0,-17.1,155.4,459.3,-184.5,0,2358,0,48,
1.3133,-99.9,-218.4,-387.0,-191.1,-173.4,-57.0,-33.3,-50.7,222.3,-42.9,518.7,4288.2,-253.5,1443.3,-1563.0,-8.7,1.2,2.4,1620.6,-5791.8,-16.8,137.7,464.4,-194.4,0,2364,0,49,
1.3167,-98.1,-220.2,-381.3,-184.5,-167.7,-56.4,-36.6,-47.4,741.0,-35.4,532.5,4299.9,-252.6,1441.8,-1551.9,-24.0,1.5,2.1,1620.0,-5775.0,-17.1,141.0,459.6,-193.5,0,2370,0,50,
1.3200,-94.2,-215.1,-379.8,-186.0,-166.8,-58.8,-35.7,-44.4,296.4,-31.5,525.9,4305.6,-241.8,1447.5,-1551.0,-20.4,1.2,2.7,1609.2,-5798.1,-16.8,131.7,450.3,-196.5,0,2376,0,51,
1.3233,-93.9,-219.0,-378.6,-183.0,-166.8,-54.0,-35.4,-39.9,-74.1,-22.8,530.4,4296.9,-249.9,1447.5,-1548.6,-34.8,1.2,2.7,1606.5,-5798.1,-16.8,153.0,434.4,-190.2,0,2382,0,52,
1.3267,-95.4,-215.4,-380.7,-182.4,-164.7,-48.9,-33.6,-42.3,-296.4,-41.7,530.7,4292.7,-247.5,1444.2,-1555.5,-38.4,1.2,2.4,1625.1,-5781.9,-17.4,141.9,439.8,-181.2,0,2388,0,53,
1.3300,-97.5,-214.8,-380.7,-181.5,-158.7,-42.0,-32.4,-40.5,444.6,-33.3,529.2,4276.2,-245.1,1449.6,-1535.1,-23.1,0.9,2.1,1630.2,-5772.6,-16.8,139.8,453.6,-194.1,0,2394,0,54,
1.3333,-95.7,-210.6,-373.2,-172.5,-143.1,-30.3,-22.2,-34.8,592.8,-30.0,528.9,4299.6,-243.6,1446.0,-1520.4,-30.9,1.5,2.4,1621.5,-5757.9,-17.1,160.5,456.3,-165.6,0,2400,0,55,
1.3367,-95.4,-213.9,-372.9,-168.3,-148.2,-35.7,-24.6,-37.2,296.4,-28.8,533.1,4274.4,-237.6,1444.8,-1529.4,-27.9,1.2,2.4,1607.4,-5769.6,-17.1,150.3,451.5,-181.8,0,2406,0,56,
1.3400,-94.8,-214.8,-375.6,-179.4,-164.1,-40.5,-24.9,-36.6,-148.2,-37.2,529.8,4295.4,-242.7,1445.1,-1537.2,-33.6,1.5,2.4,1597.8,-5783.7,-16.8,151.5,451.8,-186.3,0,2412,0,57,
1.3433,-98.1,-210.6,-374.1,-177.3,-159.3,-40.5,-29.7,-36.9,-222.3,-25.8,529.2,4280.1,-241.2,1439.1,-1541.1,-45.9,1.2,2.7,1595.4,-5772.9,-16.8,158.1,445.8,-186.9,0,2418,0,58,
1.3467,-99.3,-218.4,-378.6,-180.3,-159.9,-49.5,-34.2,-40.2,296.4,-35.4,526.2,4269.3,-253.5,1438.8,-1523.1,-21.6,0.9,2.4,1607.4,-5768.7,-17.1,141.0,445.5,-198.0,0,2424,0,59,
1.3500,-98.4,-223.2,-376.5,-183.6,-168.6,-47.1,-30.3,-38.4,518.7,-47.1,521.7,4276.2,-256.2,1430.7,-1508.4,-24.3,1.2,2.4,1600.2,-5793.0,-17.4,139.5,443.1,-188.1,0,2430,0,60,
1.3533,-101.4,-221.7,-379.5,-184.5,-168.3,-47.4,-32.1,-38.7,296.4,-40.5,516.3,4256.7,-265.2,1422.9,-1524.3,-37.2,1.2,2.4,1587.3,-5828.4,-16.8,129.3,454.2,-198.6,0,2436,0,61,
1.3567,-107.7,-226.8,-388.8,-189.9,-175.5,-58.8,-41.1,-47.1,-74.1,-48.9,512.1,4234.2,-252.0,1424.4,-1528.5,-46.8,1.5,2.1,1576.8,-5792.4,-16.8,131.7,435.9,-206.4,0,2442,0,62,
1.3600,-102.6,-229.2,-386.4,-187.8,-172.2,-58.8,-37.5,-45.6,-296.4,-38.1,514.2,4231.5,-263.4,1431.3,-1545.0,-35.4,0.9,2.4,1585.2,-5788.8,-17.1,129.3,437.4,-201.3,0,2448,0,63,
1.3633,-101.7,-225.9,-386.4,-189.9,-175.2,-55.5,-35.1,-47.4,370.5,-42.3,507.9,4263.3,-262.8,1425.9,-1531.8,-18.9,1.2,2.4,1582.5,-5768.1,-17.1,137.7,440.1,-197.1,0,2454,0,64,
1.3667,-101.4,-222.3,-388.2,-195.0,-183.6,-61.8,-41.7,-49.8,444.6,-50.1,510.3,4268.4,-259.2,1441.5,-1517.4,-15.3,1.2,2.7,1572.0,-5792.4,-16.8,133.8,438.3,-202.5,0,2460,0,65,
1.3700,-104.7,-225.3,-389.1,-194.7,-181.5,-64.2,-44.7,-51.3,296.4,-50.7,501.0,4266.0,-267.0,1425.6,-1520.7,-29.7,0.9,2.7,1563.3,-5808.9,-16.8,126.6,435.9,-204.0,0,2466,0,66,
1.3733,-105.6,-221.7,-385.2,-187.2,-175.2,-59.7,-38.1,-46.2,-74.1,-51.0,512.4,4259.7,-264.3,1421.7,-1543.5,-45.6,1.2,2.4,1559.1,-5820.9,-16.8,138.0,443.4,-194.7,0,2472,0,67,
1.3767,-109.8,-223.5,-384.3,-185.1,-173.7,-54.0,-38.1,-42.9,-74.1,-57.0,508.8,4251.6,-264.9,1415.4,-1562.4,-38.7,0.9,2.4,1559.1,-5805.6,-17.1,143.1,446.1,-195.9,0,2478,0,68,
1.3800,-107.7,-229.2,-390.6,-189.3,-176.7,-60.3,-40.8,-43.8,370.5,-55.2,499.5,4197.6,-271.5,1418.1,-1536.0,-36.0,0.9,2.4,1546.8,-5816.1,-16.8,123.3,446.7,-205.5,0,2484,0,69,
1.3833,-114.3,-227.1,-389.4,-185.7,-163.5,-55.2,-37.8,-43.5,741.0,-57.3,503.7,4214.4,-268.8,1409.4,-1533.0,-24.0,1.2,2.7,1545.6,-5802.6,-17.4,123.0,450.6,-204.9,0,2490,0,70,
1.3867,-111.9,-229.2,-392.1,-183.9,-164.7,-55.8,-41.7,-41.1,444.6,-56.1,497.4,4213.5,-270.0,1409.1,-1549.5,-34.8,1.2,2.4,1526.7,-5813.7,-16.8,118.8,442.2,-205.5,0,2496,0,71,
1.3900,-104.1,-219.9,-384.3,-182.1,-174.3,-57.9,-39.0,-41.1,0.0,-57.6,500.7,4207.2,-264.0,1419.9,-1526.7,-35.1,0.9,2.4,1526.4,-5802.6,-16.8,114.6,440.7,-211.5,0,2502,0,72,
1.3933,-102.9,-217.8,-381.0,-186.6,-179.1,-57.0,-42.9,-38.1,-222.3,-44.1,507.6,4256.7,-259.8,1422.6,-1534.2,-34.2,1.2,2.4,1523.1,-5812.2,-17.1,127.2,432.9,-210.6,0,2508,0,73,
1.3967,-103.8,-217.2,-379.2,-182.4,-175.2,-55.5,-43.5,-38.7,518.7,-48.0,512.7,4260.0,-258.9,1428.0,-1501.2,-28.2,1.2,2.1,1524.0,-5813.1,-17.1,126.0,441.6,-204.3,0,2514,0,74,
1.4000,-101.1,-209.1,-368.1,-175.5,-173.4,-52.8,-36.6,-33.0,666.9,-46.8,522.3,4268.4,-250.8,1426.5,-1494.0,-10.5,1.2,2.4,1517.4,-5794.8,-16.8,129.0,449.1,-208.8,0,2520,0,75,
1.4033,-103.8,-212.4,-373.8,-175.8,-168.3,-48.6,-36.3,-31.5,370.5,-43.5,519.0,4266.6,-257.7,1422.6,-1477.8,-10.2,1.5,2.7,1513.2,-5784.3,-17.1,143.1,444.3,-193.2,0,2526,0,76,
1.4067,-102.3,-213.9,-380.4,-182.4,-176.4,-56.4,-40.2,-34.2,0.0,-48.3,505.5,4243.5,-255.0,1422.6,-1494.0,-30.6,1.5,2.1,1504.8,-5801.7,-16.8,136.2,432.9,-205.5,0,2532,0,77,
1.4100,-106.8,-218.4,-383.1,-184.2,-171.3,-57.0,-45.3,-43.8,-74.1,-46.8,502.2,4234.2,-261.6,1421.4,-1494.6,-24.0,1.5,2.4,1496.7,-5789.1,-16.8,126.6,448.5,-208.8,0,2538,0,78,
1.4133,-106.2,-220.5,-379.8,-184.2,-168.9,-56.7,-45.0,-45.6,370.5,-47.7,506.1,4204.2,-255.6,1429.5,-1458.9,-3.0,1.2,2.7,1494.6,-5786.7,-16.8,129.3,454.8,-208.2,0,2544,0,79,
1.4167,-111.9,-225.6,-383.4,-179.1,-165.9,-56.4,-44.4,-51.3,666.9,-48.3,509.7,4191.9,-259.2,1425.3,-1435.8,-11.4,1.2,2.4,1484.4,-5785.2,-16.8,125.7,462.6,-206.7,0,2550,0,80,
1.4200,-113.7,-228.3,-379.8,-177.3,-160.8,-48.0,-44.1,-48.3,518.7,-45.6,503.1,4220.1,-272.4,1411.8,-1470.3,-13.5,1.2,2.1,1465.8,-5786.7,-17.1,150.9,455.1,-195.3,0,2556,0,81,
1.4233,-111.3,-225.6,-382.8,-182.7,-174.9,-55.5,-45.0,-50.7,-148.2,-42.9,504.6,4231.8,-264.9,1413.3,-1458.3,-19.8,1.2,2.4,1462.8,-5793.6,-16.8,134.7,453.6,-199.8,0,2562,0,82,
1.4267,-111.9,-225.3,-387.3,-187.2,-174.9,-57.0,-47.1,-50.1,-296.4,-52.5,499.2,4226.1,-267.9,1417.8,-1454.1,-18.9,0.9,2.4,1459.2,-5792.1,-17.1,132.6,460.5,-211.8,0,2568,0,83,
1.4300,-113.7,-231.0,-393.9,-189.9,-174.3,-62.1,-51.3,-53.4,370.5,-57.9,496.5,4165.2,-267.9,1414.5,-1428.6,-9.6,1.2,2.4,1446.9,-5801.4,-16.8,118.5,450.0,-216.6,0,2574,0,84,
1.4333,-113.7,-229.8,-390.3,-188.1,-156.6,-57.3,-46.2,-48.9,592.8,-48.0,493.2,4158.3,-270.3,1415.4,-1434.0,-15.6,1.2,2.4,1442.4,-5792.1,-16.8,119.1,455.4,-213.6,0,2580,0,85,
1.4367,-105.3,-220.2,-384.9,-184.2,-165.3,-58.5,-47.7,-45.9,370.5,-57.3,500.1,4168.2,-263.4,1421.7,-1419.9,-9.6,1.2,2.4,1440.6,-5787.9,-16.8,129.3,448.2,-200.4,0,2586,0,86,
1.4400,-105.6,-223.8,-384.6,-185.1,-173.1,-60.6,-44.4,-45.6,-74.1,-64.5,495.3,4227.0,-270.6,1410.6,-1427.7,-21.6,0.9,2.4,1424.7,-5792.7,-16.8,115.8,455.7,-213.3,0,2592,0,87,
1.4433,-112.2,-225.6,-383.7,-182.4,-172.2,-57.9,-50.7,-46.8,-148.2,-60.0,501.6,4211.7,-267.0,1408.5,-1443.9,-18.6,1.2,2.7,1432.8,-5805.0,-17.1,126.0,451.8,-204.9,0,2598,0,88,
1.4467,-111.9,-227.1,-387.6,-184.8,-167.4,-58.5,-50.7,-45.0,444.6,-56.1,499.5,4196.7,-272.7,1414.8,-1416.3,6.3,0.6,2.1,1436.1,-5783.1,-16.8,134.1,447.6,-204.3,0,2604,0,89,
1.4500,-115.2,-235.2,-391.5,-182.1,-163.5,-59.4,-50.1,-47.1,666.9,-58.2,487.2,4185.6,-281.7,1407.6,-1403.7,-5.7,1.2,2.7,1414.5,-5760.6,-17.1,127.5,442.8,-213.6,0,2610,0,90,
1.4533,-113.4,-228.6,-386.7,-181.5,-168.6,-57.3,-45.9,-40.5,296.4,-58.5,495.0,4170.0,-276.3,1414.2,-1413.3,-4.5,1.2,2.4,1393.8,-5746.5,-16.8,113.4,444.9,-214.2,0,2616,0,91,
1.4567,-107.1,-227.7,-386.7,-179.4,-160.5,-57.0,-46.8,-41.7,-148.2,-64.2,489.6,4138.5,-276.3,1413.6,-1404.9,-6.9,1.2,2.1,1395.0,-5835.6,-16.8,121.8,443.1,-205.5,0,2622,0,92,
1.4600,-104.7,-218.4,-383.7,-178.2,-162.6,-51.9,-45.9,-37.2,-148.2,-63.6,492.6,4175.7,-264.9,1422.9,-1387.8,0.0,1.2,2.1,1390.2,-5796.9,-16.8,120.0,450.9,-200.1,0,2628,0,93,
1.4633,-104.7,-214.2,-376.2,-174.3,-164.1,-48.9,-41.7,-35.1,444.6,-59.7,492.3,4246.2,-268.2,1421.4,-1388.7,5.4,0.9,2.4,1406.7,-5744.4,-16.8,129.3,460.8,-199.2,0,2634,0,94,
1.4667,-103.5,-222.9,-381.0,-176.7,-165.0,-49.2,-38.4,-38.7,592.8,-58.5,498.9,4261.2,-270.0,1422.9,-1383.3,22.2,1.2,2.4,1399.5,-5764.5,-17.1,125.1,456.0,-198.3,0,2640,0,95,
1.4700,-102.0,-220.5,-378.0,-178.5,-162.3,-47.7,-36.9,-36.6,444.6,-60.6,498.3,4249.5,-269.7,1420.2,-1382.7,37.5,1.2,2.7,1393.8,-5784.6,-16.8,128.1,445.8,-198.6,0,2646,0,96,
1.4733,-104.1,-224.1,-385.2,-186.0,-163.8,-50.7,-34.5,-36.6,-74.1,-55.8,491.4,4203.9,-267.6,1418.7,-1388.1,23.4,1.2,2.1,1370.4,-5784.0,-16.5,138.9,446.4,-201.6,0,2652,0,97,
1.4767,-98.4,-218.7,-381.0,-179.7,-162.9,-49.2,-36.3,-33.3,-222.3,-54.0,495.3,4215.0,-261.6,1426.8,-1391.1,4.2,1.5,2.4,1377.0,-5773.8,-17.1,129.9,455.4,-191.4,0,2658,0,98,
1.4800,-100.2,-220.5,-380.7,-179.4,-163.8,-49.8,-36.9,-33.3,296.4,-46.5,501.9,4212.0,-261.0,1422.3,-1370.4,17.4,1.2,2.4,1385.7,-5751.3,-16.8,136.5,458.4,-192.0,0,2664,0,99,
1.4833,-104.4,-220.2,-374.4,-176.1,-164.7,-51.6,-42.3,-32.4,444.6,-55.5,490.5,4215.9,-273.3,1422.6,-1370.1,16.8,1.2,2.4,1384.5,-5782.2,-17.1,132.9,450.9,-195.3,0,2670,0,100,
1.4867,-102.0,-218.7,-376.8,-174.3,-149.7,-49.2,-38.1,-30.9,370.5,-53.7,492.0,4193.1,-265.8,1427.1,-1378.2,14.4,1.2,2.4,1364.1,-5784.3,-17.1,125.1,453.9,-195.3,0,2676,0,101,
1.4900,-104.1,-218.7,-376.8,-170.7,-156.0,-42.3,-33.9,-30.0,-148.2,-50.7,500.7,4194.9,-274.8,1413.6,-1382.7,21.0,0.9,2.1,1355.7,-5751.6,-17.1,143.4,454.8,-177.9,0,2682,0,102,
1.4933,-106.8,-222.0,-376.8,-177.0,-168.0,-48.6,-41.7,-36.3,-74.1,-62.1,499.2,4215.9,-277.2,1407.9,-1390.5,19.2,0.9,2.4,1345.5,-5757.0,-17.1,136.5,441.0,-189.6,0,2688,0,103,
1.4967,-99.3,-215.1,-372.0,-168.6,-161.4,-43.8,-36.9,-30.3,518.7,-61.2,503.1,4215.0,-275.7,1410.3,-1377.6,30.0,0.9,2.7,1351.2,-5758.2,-16.8,125.1,440.4,-194.7,0,2694,0,104,
1.5000,-99.9,-215.1,-374.7,-175.5,-170.4,-54.3,-43.8,-34.5,741.0,-62.1,496.8,4208.1,-267.3,1411.5,-1384.8,42.3,0.9,2.1,1355.7,-5776.5,-17.1,118.8,431.1,-197.4,0,2700,0,105,
1.5033,-97.2,-217.8,-369.9,-166.2,-164.7,-51.0,-41.7,-32.1,518.7,-60.0,505.2,4208.4,-272.1,1413.6,-1395.0,29.7,1.2,2.7,1358.1,-5771.7,-16.8,123.0,434.4,-194.1,0,2706,0,106,
1.5067,-102.0,-222.3,-378.3,-175.5,-159.3,-50.1,-42.6,-32.7,0.0,-60.3,494.4,4158.9,-278.4,1408.8,-1402.5,5.7,1.2,2.4,1333.8,-5780.1,-16.8,120.6,428.7,-207.3,0,2712,0,107,
1.5100,-96.6,-220.2,-377.7,-169.2,-159.9,-51.6,-39.9,-26.1,0.0,-63.9,494.7,4158.6,-277.2,1415.1,-1395.9,-1.8,1.2,2.4,1333.5,-5771.4,-16.8,117.3,433.5,-201.9,0,2718,0,108,
1.5133,-99.0,-219.6,-375.0,-169.2,-158.1,-46.2,-38.4,-27.0,444.6,-67.8,497.1,4145.7,-276.0,1416.6,-1383.0,22.2,1.2,2.4,1345.5,-5762.4,-16.5,138.9,430.2,-197.4,0,2724,0,109,
1.5167,-98.1,-213.3,-368.1,-162.3,-150.9,-44.4,-39.3,-19.8,815.1,-55.8,501.0,4189.2,-273.6,1410.6,-1388.4,25.5,1.2,2.4,1344.6,-5739.9,-17.1,132.3,443.4,-192.0,0,2730,0,110,
1.5200,-97.8,-215.7,-363.3,-159.6,-148.5,-43.8,-41.7,-20.4,518.7,-56.1,499.8,4190.1,-269.1,1419.0,-1389.0,26.4,1.2,2.7,1338.9,-5759.4,-17.1,134.7,437.4,-191.7,0,2736,0,111,
1.5233,-100.2,-210.6,-360.3,-156.6,-152.4,-42.0,-40.5,-18.3,0.0,-52.2,507.0,4194.6,-267.6,1415.7,-1394.7,11.1,1.2,2.1,1341.3,-5757.9,-16.8,140.4,435.6,-186.6,0,2742,0,112,
1.5267,-96.6,-210.6,-360.6,-160.2,-153.0,-40.8,-39.9,-20.4,-148.2,-47.1,509.1,4193.7,-260.4,1416.3,-1388.4,14.4,1.2,2.4,1331.4,-5749.2,-16.8,148.2,439.8,-184.2,0,2748,0,113,
1.5300,-95.7,-209.1,-358.2,-157.2,-154.5,-41.7,-39.3,-21.0,666.9,-49.8,513.9,4193.4,-264.9,1426.8,-1369.5,23.1,0.9,2.4,1336.2,-5751.6,-16.8,145.8,443.4,-185.4,0,2754,0,114,
1.5333,-95.1,-207.3,-359.7,-164.1,-157.2,-42.9,-39.3,-17.7,741.0,-54.9,509.1,4192.8,-263.4,1422.6,-1356.0,42.0,1.5,2.4,1336.2,-5744.1,-17.1,136.2,441.3,-180.9,0,2760,0,115,
1.5367,-94.5,-204.6,-358.2,-159.9,-148.5,-37.8,-34.5,-18.6,518.7,-38.4,513.3,4161.9,-260.1,1427.1,-1357.2,38.1,1.5,2.7,1335.3,-5802.6,-17.1,153.0,441.0,-171.3,0,2766,0,116,
1.5400,-93.9,-208.5,-352.2,-157.5,-152.7,-39.6,-33.9,-19.2,0.0,-50.1,516.6,4153.8,-261.9,1426.5,-1361.1,36.0,1.2,2.4,1333.2,-5746.5,-16.8,138.9,448.8,-187.2,0,2772,0,117,
1.5433,-101.1,-216.3,-358.5,-159.3,-154.2,-45.6,-42.6,-23.7,74.1,-64.5,512.1,4143.0,-277.2,1421.1,-1352.1,28.8,0.9,2.7,1327.8,-5738.7,-16.8,131.7,440.1,-185.1,0,2778,0,118,
1.5467,-103.2,-219.3,-355.5,-159.0,-144.6,-47.7,-42.3,-24.0,444.6,-65.4,506.1,4131.0,-275.7,1421.1,-1340.7,35.7,0.9,2.1,1332.0,-5739.9,-16.8,135.3,432.6,-192.3,0,2784,0,119,
1.5500,-109.2,-226.8,-364.5,-164.1,-147.9,-55.5,-47.7,-31.2,666.9,-67.2,497.1,4123.2,-283.2,1413.9,-1340.7,35.7,0.9,2.4,1324.5,-5751.9,-16.8,132.0,425.4,-200.1,0,2790,0,120,
1.5533,-103.5,-224.4,-366.6,-173.4,-166.2,-57.0,-45.9,-30.0,518.7,-63.9,499.5,4158.0,-276.9,1426.5,-1336.2,29.7,1.2,2.4,1312.2,-5738.7,-16.8,122.7,423.3,-194.4,0,2796,0,121,
1.5567,-99.9,-217.8,-359.1,-165.9,-156.0,-47.1,-45.9,-27.9,74.1,-61.5,507.9,4198.8,-278.1,1421.7,-1325.4,35.1,1.2,2.7,1315.5,-5734.5,-16.8,128.4,429.3,-192.3,0,2802,0,122,
1.5600,-106.5,-221.4,-360.9,-164.4,-162.6,-53.4,-43.8,-30.6,0.0,-49.8,511.5,4198.5,-280.5,1408.8,-1335.0,27.0,1.2,2.4,1303.2,-5736.9,-17.1,132.6,429.6,-196.2,0,2808,0,123,
1.5633,-102.0,-218.1,-361.5,-166.5,-161.7,-56.7,-49.2,-33.3,518.7,-55.8,505.5,4194.9,-282.3,1409.7,-1322.4,41.4,1.2,2.4,1290.3,-5741.7,-17.1,123.3,430.2,-199.2,0,2814,0,124,
1.5667,-100.5,-216.6,-360.0,-167.7,-163.5,-52.2,-40.8,-31.8,666.9,-64.5,500.1,4189.5,-284.4,1408.2,-1315.5,59.4,1.5,2.7,1300.5,-5737.2,-16.5,139.5,437.1,-189.9,0,2820,0,125,
1.5700,-101.7,-217.5,-357.9,-166.8,-157.5,-44.7,-42.9,-32.4,296.4,-62.1,504.3,4189.8,-282.6,1411.5,-1314.3,42.9,1.2,2.7,1283.7,-5731.8,-16.8,140.7,430.2,-177.6,0,2826,0,126,
1.5733,-91.5,-207.3,-348.3,-156.3,-146.1,-39.0,-33.9,-20.7,0.0,-51.0,513.6,4195.2,-274.2,1424.1,-1326.3,39.9,1.2,2.7,1293.6,-5725.2,-16.8,136.8,440.7,-180.0,0,2832,0,127,
1.5767,-93.6,-213.6,-351.0,-159.9,-146.4,-37.5,-33.6,-23.4,-74.1,-45.3,517.2,4171.5,-269.4,1420.5,-1337.7,48.3,1.2,2.4,1291.5,-5719.8,-16.5,150.3,444.9,-174.6,0,2838,0,128,
1.5800,-99.3,-215.1,-354.9,-159.6,-145.8,-34.5,-33.9,-21.0,444.6,-47.4,509.4,4171.8,-276.6,1417.2,-1316.7,66.0,1.5,2.7,1291.2,-5706.0,-17.1,144.6,449.4,-170.4,0,2844,0,129,
1.5833,-102.3,-215.7,-360.0,-163.2,-151.5,-39.3,-37.5,-33.0,592.8,-54.3,502.2,4167.9,-273.9,1419.6,-1312.8,66.3,1.5,2.7,1272.0,-5706.6,-17.1,133.8,445.8,-183.3,0,2850,0,130,
1.5867,-93.9,-206.7,-352.2,-159.0,-147.6,-36.9,-35.7,-27.6,370.5,-42.0,518.7,4170.6,-268.8,1430.4,-1324.5,64.8,1.2,2.7,1282.5,-5708.4,-16.8,150.6,443.7,-175.8,0,2856,0,131,
1.5900,-94.2,-210.0,-355.8,-161.1,-149.1,-40.8,-39.6,-29.4,-74.1,-42.9,513.3,4155.0,-270.0,1423.8,-1337.4,37.8,0.9,2.1,1264.5,-5718.3,-16.5,153.0,442.2,-180.0,0,2862,0,132,
1.5933,-95.7,-207.6,-356.7,-165.0,-147.3,-40.2,-35.1,-30.6,-74.1,-47.7,511.5,4170.6,-264.3,1425.6,-1328.7,42.6,1.2,2.4,1269.9,-5709.3,-17.1,141.9,446.4,-174.6,0,2868,0,133,
1.5967,-93.9,-209.4,-359.7,-166.5,-147.0,-39.6,-32.4,-29.1,444.6,-46.5,497.4,4157.1,-273.0,1430.7,-1312.8,67.5,0.9,2.7,1250.1,-5696.7,-16.8,152.4,449.1,-177.9,0,2874,0,134,
1.6000,-95.7,-214.2,-358.8,-165.6,-147.3,-42.6,-36.9,-26.4,592.8,-38.1,520.2,4140.0,-276.3,1431.3,-1304.7,64.5,1.5,2.4,1253.1,-5704.2,-17.1,158.4,426.6,-171.0,0,2880,0,135,
1.6033,-96.6,-214.5,-360.6,-168.6,-153.3,-46.8,-40.2,-30.0,444.6,-38.4,509.7,4133.4,-273.0,1431.0,-1321.5,57.9,1.2,2.7,1247.1,-5712.3,-17.1,146.1,428.1,-189.0,0,2886,0,136,
1.6067,-101.4,-220.5,-370.2,-179.1,-156.9,-50.4,-43.2,-37.5,-74.1,-51.9,488.7,4129.8,-277.2,1422.3,-1334.7,51.0,1.2,2.4,1226.7,-5709.6,-16.8,142.8,429.6,-192.9,0,2892,0,137,
1.6100,-105.6,-225.6,-372.6,-183.3,-166.5,-57.3,-47.1,-46.2,-74.1,-56.1,500.1,4125.3,-289.8,1420.8,-1342.8,44.7,1.2,2.4,1216.2,-5717.4,-16.8,142.5,416.4,-195.3,0,2898,0,138,
1.6133,-109.2,-232.5,-372.0,-180.3,-161.4,-48.9,-44.1,-44.1,444.6,-50.1,501.9,4139.7,-288.6,1421.4,-1312.5,59.4,1.2,2.4,1222.5,-5705.4,-16.8,136.5,428.4,-186.6,0,2904,0,139,
1.6167,-106.5,-225.0,-371.4,-177.9,-163.8,-54.0,-43.5,-37.2,666.9,-54.0,500.7,4123.5,-285.6,1415.7,-1322.7,58.5,1.2,2.4,1221.0,-5710.8,-16.8,132.9,439.2,-193.5,0,2910,0,140,
1.6200,-109.5,-226.8,-372.3,-180.0,-159.0,-51.6,-46.2,-38.1,444.6,-55.8,502.2,4128.3,-294.9,1410.6,-1327.8,33.0,1.5,2.7,1212.6,-5709.0,-16.8,134.1,421.2,-191.7,0,2916,0,141,
1.6233,-109.8,-225.3,-367.5,-172.8,-156.3,-52.5,-47.1,-37.2,-148.2,-55.5,521.1,4117.2,-291.6,1411.5,-1327.2,27.0,0.9,2.7,1233.6,-5711.7,-16.8,134.7,415.5,-188.1,0,2922,0,142,
1.6267,-104.4,-222.0,-361.2,-170.7,-154.8,-42.3,-47.1,-37.2,-74.1,-63.0,526.5,4163.4,-289.8,1418.1,-1325.7,30.9,1.2,2.4,1245.6,-5678.4,-16.8,141.3,422.1,-178.5,0,2928,0,143,
1.6300,-107.1,-223.5,-366.6,-173.7,-154.8,-48.9,-49.5,-36.6,370.5,-70.8,499.5,4128.0,-299.4,1407.3,-1323.3,40.8,1.2,2.4,1237.2,-5691.3,-16.8,133.5,423.0,-186.6,0,2934,0,144,
1.6333,-102.6,-222.6,-367.2,-172.2,-159.6,-47.1,-42.9,-34.2,592.8,-82.5,489.9,4095.0,-302.1,1422.9,-1331.4,36.0,1.2,2.7,1218.6,-5705.7,-16.8,129.0,426.0,-188.4,0,2940,0,145,
1.6367,-96.6,-206.1,-340.5,-153.9,-128.1,-38.1,-46.5,-24.0,370.5,-58.2,541.8,4122.0,-280.5,1422.6,-1343.7,-1.2,1.2,2.4,1266.3,-5683.2,-17.1,140.4,412.5,-174.3,0,2946,0,146,
1.6400,-91.2,-189.0,-316.2,-138.3,-117.9,-28.2,-39.6,-13.2,74.1,-40.8,591.6,4139.7,-269.1,1431.0,-1354.8,-10.5,1.8,2.7,1299.6,-5650.5,-16.8,155.7,413.7,-160.5,0,2952,0,147,
1.6433,-93.9,-193.2,-325.8,-139.8,-125.1,-37.5,-45.9,-16.5,-222.3,-37.8,565.2,4059.6,-270.9,1428.6,-1354.5,-20.7,1.2,2.7,1270.8,-5655.9,-17.4,141.9,417.3,-169.2,0,2958,0,148,
1.6467,-91.2,-186.3,-314.7,-134.4,-122.7,-31.8,-44.1,-10.5,518.7,-33.3,579.0,4164.9,-261.0,1435.5,-1362.6,-31.8,1.2,3.0,1291.5,-5645.1,-17.1,149.4,421.5,-173.1,0,2964,0,149,
1.6500,-90.9,-188.7,-316.5,-136.8,-125.7,-37.2,-42.6,-13.5,666.9,-52.2,578.1,4251.6,-269.1,1435.8,-1368.0,-55.2,1.2,2.7,1266.3,-5625.9,-16.8,139.2,417.3,-172.5,0,2970,0,150,
1.6533,-99.3,-197.7,-323.4,-144.9,-138.3,-41.7,-51.0,-20.1,370.5,-56.7,592.2,4260.0,-270.3,1426.8,-1373.1,-45.3,1.2,2.7,1248.9,-5650.5,-16.8,132.3,405.9,-179.1,0,2976,0,151,
1.6567,-96.0,-201.0,-324.0,-149.7,-138.0,-37.8,-48.9,-23.7,0.0,-41.7,606.6,4206.6,-274.5,1434.0,-1371.9,-47.1,1.5,2.7,1252.8,-5650.2,-16.8,129.9,396.6,-168.6,0,2982,0,152,
1.6600,-96.9,-197.1,-317.7,-134.1,-99.9,-32.7,-42.0,-20.1,0.0,-53.7,615.9,4179.0,-268.8,1428.9,-1357.8,-55.2,1.5,2.7,1254.0,-5716.5,-16.8,135.3,411.3,-178.8,0,2988,0,153,
1.6633,-95.1,-195.0,-318.3,-136.8,-123.3,-36.3,-40.5,-17.4,444.6,-42.3,610.2,4192.5,-268.5,1429.5,-1335.6,-42.9,1.2,2.7,1258.8,-5623.5,-16.8,137.7,410.4,-169.5,0,2994,0,154,
1.6667,-95.1,-191.7,-320.4,-144.0,-136.5,-37.2,-36.6,-21.3,815.1,-46.2,624.3,4225.8,-252.9,1436.7,-1304.4,-29.4,1.2,2.4,1265.1,-5634.3,-16.8,132.6,408.6,-173.4,0,3000,0,155,
1.6700,-94.8,-198.3,-324.9,-143.4,-117.3,-35.1,-36.9,-22.5,444.6,-45.9,631.2,4176.3,-267.9,1438.8,-1308.6,-25.2,1.2,2.7,1248.9,-5649.3,-17.1,116.1,409.2,-179.7,0,3006,0,156,
1.6733,-88.8,-189.9,-316.2,-134.7,-94.5,-32.7,-38.1,-19.2,-222.3,-44.1,647.7,4167.0,-256.5,1446.6,-1344.6,-34.2,1.5,2.4,1259.7,-5630.1,-16.8,127.8,401.1,-173.7,0,3012,0,157,
1.6767,-91.8,-191.1,-313.2,-128.4,-95.4,-33.0,-35.7,-11.4,0.0,-46.5,649.5,4141.2,-261.6,1437.9,-1327.8,-9.0,0.9,2.4,1240.2,-5643.6,-17.1,129.3,408.9,-176.4,0,3018,0,158,
1.6800,-90.0,-196.2,-320.1,-136.5,-130.2,-42.0,-35.4,-23.1,518.7,-48.9,645.9,4203.6,-264.3,1435.8,-1313.4,6.6,0.9,2.1,1241.4,-5634.0,-16.8,120.3,412.8,-188.4,0,3024,0,159,
1.6833,-95.4,-196.5,-324.3,-132.0,-90.3,-37.2,-35.1,-22.8,666.9,-55.8,630.6,4131.9,-258.6,1433.1,-1312.8,0.9,1.2,2.4,1236.3,-5653.8,-16.8,120.6,416.4,-186.6,0,3030,0,160,
1.6867,-99.9,-207.6,-328.8,-141.3,-141.0,-48.3,-39.9,-29.4,444.6,-49.5,635.1,4252.5,-272.4,1428.0,-1292.4,11.1,1.2,2.4,1228.5,-5586.0,-17.1,110.1,416.1,-192.9,0,3036,0,161,
1.6900,-101.4,-211.5,-339.3,-145.2,-135.3,-51.0,-41.1,-31.5,-74.1,-78.9,604.5,4237.5,-282.0,1424.1,-1290.6,-11.4,1.2,2.4,1190.1,-5638.8,-16.8,103.2,405.6,-192.9,0,3042,0,162,
1.6933,-97.8,-201.9,-330.3,-147.0,-142.8,-48.3,-38.4,-30.3,-74.1,-62.4,628.2,4261.5,-265.5,1432.2,-1303.8,-9.3,1.2,2.7,1202.7,-5611.8,-17.1,116.1,420.3,-189.9,0,3048,0,163,
1.6967,-98.4,-203.7,-319.2,-137.7,-130.8,-45.9,-35.1,-24.9,518.7,-52.2,642.9,4289.7,-258.9,1433.4,-1284.0,22.8,1.2,2.4,1229.7,-5646.9,-17.1,116.4,439.8,-186.6,0,3054,0,164,
1.7000,-96.6,-207.9,-332.4,-157.8,-149.7,-48.3,-40.8,-31.2,518.7,-57.0,612.0,4273.2,-266.4,1433.4,-1255.5,23.1,1.2,2.4,1212.9,-5690.7,-17.1,105.0,427.5,-192.3,0,3060,0,165,
1.7033,-102.3,-209.1,-338.7,-160.2,-149.1,-53.7,-45.9,-36.3,296.4,-53.7,606.9,4212.9,-267.9,1426.5,-1268.4,5.1,1.5,2.4,1193.4,-5649.3,-17.1,117.9,409.2,-195.9,0,3066,0,166,
1.7067,-100.2,-208.8,-340.2,-162.9,-163.2,-66.0,-53.7,-40.8,-148.2,-38.4,612.6,4185.9,-264.0,1437.0,-1282.2,-1.8,1.2,2.4,1188.0,-5658.6,-16.8,94.5,404.7,-218.1,0,3072,0,167,
1.7100,-104.7,-217.2,-348.9,-169.8,-168.0,-71.7,-56.7,-39.6,-148.2,-64.2,586.8,4153.2,-274.8,1417.5,-1277.4,-3.9,0.9,2.7,1160.4,-5641.8,-17.1,97.2,397.2,-212.1,0,3078,0,168,
1.7133,-104.7,-218.1,-360.6,-177.6,-156.3,-76.8,-63.0,-47.4,296.4,-71.4,548.4,4065.0,-276.6,1427.4,-1261.5,7.5,1.2,2.1,1136.7,-5801.1,-17.1,84.6,393.9,-217.5,0,3084,0,169,
1.7167,-97.2,-208.8,-347.4,-158.7,-138.9,-56.4,-52.2,-35.7,518.7,-46.5,573.0,4079.7,-267.0,1426.8,-1277.4,21.9,1.2,2.1,1155.9,-5755.8,-17.1,117.0,398.1,-189.6,0,3090,0,170,
1.7200,-101.7,-207.9,-350.1,-160.8,-142.2,-59.7,-49.8,-39.6,222.3,-75.0,577.2,4097.1,-273.6,1417.2,-1296.3,31.5,1.2,2.1,1149.6,-5675.4,-17.1,96.9,399.0,-218.4,0,3096,0,171,
1.7233,-96.9,-190.5,-342.6,-155.7,-159.0,-62.1,-56.7,-28.8,-222.3,-54.0,569.1,4172.7,-257.1,1430.1,-1304.7,-25.5,1.2,2.4,1157.7,-5664.9,-16.8,101.1,391.2,-218.4,0,3102,0,172,
1.7267,-96.0,-192.0,-342.0,-147.9,-148.5,-64.8,-53.7,-27.6,-296.4,-56.1,563.7,4141.5,-260.7,1427.1,-1298.1,-0.6,1.5,2.4,1159.5,-5652.9,-17.1,102.0,395.4,-211.8,0,3108,0,173,
1.7300,-96.3,-197.7,-343.5,-158.1,-162.6,-67.5,-58.2,-36.3,296.4,-56.7,567.6,4137.6,-249.3,1427.7,-1301.1,6.9,0.9,2.4,1172.4,-5675.7,-16.8,110.1,402.9,-212.1,0,3114,0,174,
1.7333,-102.6,-206.7,-351.3,-164.4,-160.5,-69.0,-59.1,-37.2,296.4,-63.3,542.1,4090.2,-263.4,1425.3,-1304.7,1.8,1.2,2.1,1136.1,-5739.3,-17.1,96.9,406.5,-217.2,0,3120,0,175,
1.7367,-97.5,-195.3,-345.0,-162.0,-153.3,-65.1,-60.9,-42.0,0.0,-49.5,546.9,4053.3,-245.4,1432.2,-1308.0,-6.3,1.2,2.4,1118.1,-5736.9,-17.1,94.5,403.2,-207.0,0,3126,0,176,
1.7400,-95.7,-196.2,-342.3,-158.1,-143.1,-60.6,-49.5,-38.7,-370.5,-39.6,545.7,4119.3,-245.7,1432.5,-1315.8,-1.5,0.6,1.8,1123.2,-5672.7,-17.1,114.0,408.3,-208.8,0,3132,0,177,
1.7433,-97.5,-201.9,-350.1,-173.1,-202.2,-71.4,-54.6,-48.0,-222.3,-52.2,528.3,4189.2,-253.8,1433.7,-1330.2,5.1,1.2,2.7,1101.0,-5695.8,-16.8,97.5,413.1,-217.5,0,3138,0,178,
1.7467,-95.7,-198.6,-351.6,-168.9,-168.3,-66.3,-55.2,-44.1,222.3,-48.6,522.6,4151.7,-250.2,1434.9,-1321.2,15.3,0.9,2.1,1106.7,-5683.2,-17.1,113.1,406.5,-198.0,0,3144,0,179,
1.7500,-101.4,-202.8,-355.5,-172.2,-174.3,-66.3,-55.8,-47.4,370.5,-51.6,532.2,4082.4,-244.5,1434.0,-1317.3,24.0,1.2,2.1,1118.1,-5773.8,-16.8,96.0,435.9,-210.3,0,3150,0,180,
1.7533,-95.7,-200.1,-355.2,-178.8,-192.0,-72.9,-54.3,-47.1,-74.1,-47.4,536.7,4058.7,-241.5,1426.8,-1306.2,12.6,0.9,2.7,1109.7,-5709.9,-17.1,118.5,430.2,-203.4,0,3156,0,181,
1.7567,-98.1,-204.9,-362.7,-183.9,-198.3,-78.0,-56.4,-49.8,-444.6,-50.1,514.8,4131.0,-244.8,1438.8,-1333.8,-10.5,0.9,2.4,1081.5,-5718.0,-16.8,87.3,429.6,-215.7,0,3162,0,182,
1.7600,-98.7,-205.2,-364.2,-185.7,-200.7,-78.0,-50.4,-50.1,-296.4,-56.7,507.9,4128.9,-248.7,1434.6,-1333.5,5.1,1.5,2.7,1076.4,-5710.8,-16.5,96.9,435.0,-214.2,0,3168,0,183,
1.7633,-100.2,-209.4,-364.2,-182.7,-187.5,-69.6,-52.2,-46.8,222.3,-51.9,502.8,4102.2,-244.8,1428.6,-1322.4,29.7,0.9,2.7,1092.9,-5746.8,-17.1,114.3,447.9,-205.8,0,3174,0,184,
1.7667,-99.9,-206.4,-362.7,-182.4,-189.0,-75.0,-48.0,-42.9,370.5,-45.3,505.2,4097.4,-245.1,1432.2,-1317.9,35.1,1.2,2.4,1092.9,-5725.5,-16.8,94.2,441.6,-214.8,0,3180,0,185,
1.7700,-105.3,-210.6,-365.1,-183.3,-184.8,-74.7,-49.5,-50.4,0.0,-50.1,499.5,4041.6,-249.0,1423.5,-1335.6,7.8,0.9,2.4,1079.7,-5739.0,-16.8,106.2,431.1,-212.4,0,3186,0,186,
1.7733,-107.1,-210.0,-366.9,-177.0,-173.1,-68.7,-49.2,-48.9,-444.6,-45.6,496.8,3924.9,-248.4,1421.1,-1352.7,6.9,1.2,2.1,1073.1,-5735.1,-17.1,95.4,424.8,-205.5,0,3192,0,187,
1.7767,-108.9,-214.2,-367.5,-184.5,-182.1,-74.4,-54.6,-47.7,-444.6,-53.1,489.9,4009.5,-257.7,1423.2,-1356.9,5.1,0.9,2.1,1077.0,-5772.9,-17.1,112.8,419.1,-205.5,0,3198,0,188,
1.7800,-115.8,-219.0,-367.5,-181.5,-187.2,-79.5,-54.6,-51.6,74.1,-61.8,488.4,4006.2,-247.8,1411.5,-1346.7,24.0,1.2,2.4,1088.7,-5772.3,-17.1,78.0,419.1,-225.9,0,3204,0,189,
1.7833,-112.8,-212.7,-363.9,-180.3,-182.7,-75.0,-52.5,-49.2,296.4,-60.6,492.6,3991.5,-241.5,1413.0,-1332.0,12.6,1.2,2.4,1094.4,-5752.5,-16.5,92.4,427.5,-220.2,0,3210,0,190,
1.7867,-124.2,-226.8,-378.6,-184.5,-177.0,-81.3,-60.0,-51.6,74.1,-73.2,471.9,3979.8,-263.7,1397.4,-1346.1,3.0,0.6,2.1,1062.9,-5768.7,-17.1,92.7,426.3,-222.3,0,3216,0,191,
1.7900,-115.2,-217.2,-370.2,-180.6,-184.2,-80.4,-59.7,-48.6,-518.7,-62.4,484.2,4011.9,-249.0,1407.0,-1367.7,6.9,1.5,2.4,1075.8,-5776.8,-16.8,82.5,417.0,-223.5,0,3222,0,192,
1.7933,-113.7,-217.2,-369.9,-177.0,-167.4,-80.4,-57.0,-53.4,-444.6,-63.3,480.6,3922.2,-251.1,1412.1,-1364.7,1.5,0.9,2.4,1074.6,-5791.8,-17.1,78.3,421.2,-225.6,0,3228,0,193,
1.7967,-120.6,-219.3,-372.0,-181.2,-187.2,-85.5,-61.2,-53.7,74.1,-62.4,479.7,3953.7,-255.9,1400.1,-1373.4,21.6,0.9,2.1,1078.5,-5790.9,-16.8,81.9,423.3,-222.9,0,3234,0,194,
1.8000,-111.6,-213.9,-365.7,-180.3,-189.0,-81.6,-54.9,-51.6,370.5,-62.7,483.9,3979.2,-244.5,1410.0,-1390.8,30.9,1.2,2.4,1083.0,-5828.7,-16.8,90.3,428.7,-214.8,0,3240,0,195,
1.8033,-117.0,-211.8,-366.9,-175.2,-172.2,-77.7,-60.0,-51.0,-74.1,-49.5,484.5,3991.2,-243.0,1410.3,-1389.9,2.7,1.2,2.1,1069.8,-5828.7,-16.8,108.9,423.6,-216.3,0,3246,0,196,
1.8067,-116.1,-206.1,-357.6,-168.9,-177.9,-74.4,-54.9,-45.6,-444.6,-47.7,493.5,4018.5,-224.1,1414.8,-1416.0,-12.6,1.2,2.4,1079.7,-5768.7,-16.8,99.6,432.0,-204.9,0,3252,0,197,
1.8100,-108.3,-199.2,-349.2,-159.9,-167.7,-69.3,-54.3,-37.5,-592.8,-37.2,498.0,4003.5,-227.7,1415.1,-1421.4,-21.3,1.5,2.7,1091.4,-5746.2,-17.1,100.8,423.9,-207.9,0,3258,0,198,
1.8133,-108.6,-196.8,-359.1,-169.2,-176.4,-73.2,-53.4,-43.5,148.2,-52.5,484.5,4000.5,-233.4,1420.8,-1404.9,6.0,1.2,2.7,1083.9,-5787.6,-16.8,92.4,432.0,-219.3,0,3264,0,199,
1.8167,-110.7,-204.9,-364.8,-175.5,-186.6,-75.3,-56.1,-46.2,370.5,-51.9,481.2,4008.0,-228.6,1422.0,-1380.6,17.7,1.2,2.1,1081.2,-5795.7,-16.5,98.1,439.8,-218.4,0,3270,0,200,
1.8200,-106.8,-198.6,-361.8,-170.4,-180.0,-76.8,-59.1,-42.6,0.0,-44.7,487.2,3996.3,-222.6,1422.0,-1389.6,-8.7,1.5,2.4,1071.0,-5782.2,-17.1,85.2,433.2,-213.0,0,3276,0,201,
1.8233,-111.6,-211.2,-372.6,-181.5,-175.5,-83.1,-60.9,-46.8,-592.8,-52.5,466.5,3923.7,-232.8,1419.3,-1397.7,-6.0,0.9,2.4,1056.0,-5826.0,-17.1,88.8,415.8,-225.6,0,3282,0,202,
1.8267,-109.2,-210.9,-375.3,-183.3,-173.1,-82.2,-59.4,-46.2,-592.8,-56.7,464.4,3913.8,-230.7,1421.4,-1395.3,5.1,1.2,2.7,1053.3,-5831.4,-17.1,81.9,422.7,-214.8,0,3288,0,203,
1.8300,-119.1,-226.2,-393.3,-192.9,-200.4,-94.2,-62.4,-56.7,148.2,-60.3,459.6,3965.7,-245.1,1419.3,-1393.8,13.2,1.5,2.4,1059.6,-5833.8,-16.8,84.6,421.5,-231.0,0,3294,0,204,
1.8333,-117.0,-227.4,-396.6,-201.3,-198.6,-96.3,-64.2,-64.8,222.3,-75.0,443.4,3973.2,-248.1,1407.3,-1386.9,18.6,1.2,2.7,1058.4,-5868.9,-16.8,67.2,419.1,-239.1,0,3300,0,205,
1.8367,-115.2,-228.3,-392.4,-194.7,-199.2,-93.6,-65.4,-61.2,-148.2,-49.2,456.9,3970.5,-239.4,1408.5,-1402.8,-23.7,1.2,2.1,1069.8,-5834.7,-16.8,79.8,408.6,-225.0,0,3306,0,206,
1.8400,-114.6,-232.8,-400.2,-197.4,-201.6,-91.5,-59.4,-63.3,-518.7,-67.8,446.7,3909.0,-246.6,1403.1,-1389.0,-6.0,1.2,2.4,1071.6,-5821.5,-16.8,69.6,416.7,-236.4,0,3312,0,207,
1.8433,-114.9,-231.0,-401.7,-193.8,-192.6,-87.6,-60.9,-64.2,-518.7,-61.5,440.1,3921.9,-239.1,1412.1,-1405.5,-19.8,1.2,2.4,1069.2,-5788.5,-17.1,84.0,408.3,-225.6,0,3318,0,208,
1.8467,-113.4,-231.6,-404.7,-200.7,-205.5,-88.5,-54.9,-65.1,74.1,-67.2,432.0,3956.1,-242.7,1421.1,-1365.6,5.7,1.2,2.1,1077.9,-5813.7,-17.1,83.1,423.0,-231.3,0,3324,0,209,
1.8500,-114.6,-237.6,-410.1,-207.3,-212.4,-94.5,-55.5,-66.3,148.2,-74.7,424.2,3903.3,-254.7,1411.2,-1364.4,-4.5,0.9,2.4,1077.6,-5817.0,-16.5,71.1,413.7,-237.9,0,3330,0,210,
1.8533,-112.2,-238.2,-415.5,-210.3,-211.2,-96.6,-58.8,-63.6,-74.1,-77.4,421.5,3861.0,-257.7,1411.2,-1367.7,-0.3,1.2,2.7,1054.8,-5831.7,-17.1,57.3,420.0,-243.0,0,3336,0,211,
1.8567,-112.5,-235.8,-413.1,-208.2,-209.7,-96.9,-58.8,-63.3,-518.7,-73.5,414.9,3904.8,-240.0,1411.8,-1393.8,-12.9,1.2,2.4,1045.2,-5837.4,-16.5,66.6,408.0,-237.6,0,3342,0,212,
1.8600,-114.3,-231.9,-403.8,-202.5,-204.3,-89.1,-51.3,-55.8,-592.8,-66.9,417.6,3932.4,-242.4,1409.4,-1395.0,-19.2,0.9,2.4,1038.3,-5816.4,-17.1,80.7,426.9,-220.8,0,3348,0,213,
1.8633,-114.0,-225.3,-398.4,-194.1,-179.4,-75.9,-47.1,-53.1,74.1,-62.1,418.8,3885.3,-234.9,1410.3,-1385.7,-1.2,1.2,2.4,1049.4,-5805.6,-17.1,100.5,429.6,-219.9,0,3354,0,214,
1.8667,-105.9,-218.4,-396.3,-200.1,-201.0,-79.8,-46.5,-49.5,222.3,-60.9,427.2,3940.2,-228.6,1418.4,-1366.5,27.9,1.5,2.1,1047.6,-5791.8,-17.1,94.5,432.6,-217.2,0,3360,0,215,
1.8700,-105.0,-220.8,-392.4,-186.6,-168.3,-70.8,-46.2,-42.0,-74.1,-67.5,416.7,3825.6,-234.3,1416.0,-1389.0,5.1,1.2,2.7,1020.6,-5870.1,-16.8,99.6,426.9,-216.9,0,3366,0,216,
1.8733,-99.0,-209.4,-386.1,-176.4,-168.0,-70.5,-46.5,-33.3,-592.8,-45.9,428.4,3835.8,-219.0,1421.1,-1383.6,-1.8,1.2,2.1,1026.0,-5834.7,-16.8,94.2,426.6,-215.1,0,3372,0,217,
1.8767,-106.5,-213.6,-384.9,-183.0,-190.5,-74.1,-43.5,-33.3,-518.7,-44.4,434.7,3910.2,-222.9,1415.4,-1385.4,2.1,1.2,2.7,1034.1,-5806.2,-16.8,100.8,432.6,-213.0,0,3378,0,218,
1.8800,-108.3,-213.3,-382.8,-180.3,-186.6,-66.6,-45.3,-33.9,148.2,-55.2,433.5,3988.2,-225.3,1416.9,-1376.4,26.4,1.2,2.4,1032.9,-5773.5,-16.8,117.6,428.4,-200.1,0,3384,0,219,
1.8833,-105.9,-219.9,-388.8,-187.8,-190.5,-77.7,-46.5,-39.0,222.3,-49.8,423.6,3931.2,-219.6,1418.1,-1361.1,24.9,1.2,2.4,1008.6,-5832.9,-16.8,94.5,433.8,-214.8,0,3390,0,220,
1.8867,-110.1,-222.6,-393.3,-189.9,-194.1,-77.7,-47.7,-41.4,0.0,-55.8,429.0,3927.6,-221.7,1406.1,-1368.6,8.1,1.2,2.4,999.6,-5791.5,-16.8,94.2,435.3,-215.1,0,3396,0,221,
1.8900,-108.9,-223.8,-395.1,-190.5,-176.7,-69.6,-46.8,-44.1,-518.7,-56.1,413.1,3888.0,-226.5,1410.3,-1368.6,-10.2,0.9,2.4,982.2,-5840.4,-16.8,91.8,435.6,-204.3,0,3402,0,222,
1.8933,-114.3,-230.7,-399.3,-190.8,-169.8,-66.6,-53.4,-48.0,-592.8,-60.9,404.1,3814.5,-229.8,1410.0,-1383.9,-10.2,1.2,2.1,971.1,-5815.8,-17.1,78.0,429.6,-204.9,0,3408,0,223,
1.8967,-120.0,-240.9,-401.4,-198.9,-176.1,-80.4,-57.3,-62.1,0.0,-80.4,408.9,3871.5,-243.0,1406.1,-1366.8,3.0,0.9,2.1,980.7,-5798.7,-17.1,79.8,429.9,-213.9,0,3414,0,224,
1.9000,-119.4,-241.5,-402.9,-202.8,-213.0,-87.6,-58.5,-63.0,222.3,-63.3,411.9,3924.6,-240.9,1401.9,-1353.3,3.0,0.9,2.4,974.4,-5798.4,-16.8,84.9,436.2,-225.3,0,3420,0,225,
1.9033,-118.8,-246.0,-412.2,-204.9,-197.7,-92.7,-62.7,-65.4,-148.2,-70.8,399.6,3903.6,-247.5,1395.6,-1360.2,-21.6,1.2,2.7,955.2,-5810.4,-16.8,75.6,430.2,-227.1,0,3426,0,226,
1.9067,-117.0,-241.8,-414.3,-209.4,-209.1,-95.7,-63.6,-64.5,-444.6,-75.0,403.8,3878.1,-241.2,1398.6,-1354.2,-26.7,1.2,2.4,960.6,-5797.5,-16.8,72.0,419.1,-231.9,0,3432,0,227,
1.9100,-117.3,-236.1,-415.5,-204.0,-196.5,-93.0,-63.9,-62.7,-444.6,-69.3,400.8,3844.5,-233.1,1405.8,-1365.0,-37.5,0.9,2.1,950.4,-5811.9,-16.8,81.6,416.4,-227.1,0,3438,0,228,
1.9133,-115.2,-233.1,-407.4,-205.5,-200.1,-86.4,-58.8,-59.4,370.5,-72.0,408.0,3874.2,-231.9,1404.9,-1378.8,-33.0,1.2,2.7,962.1,-5825.1,-17.1,78.0,430.2,-225.9,0,3444,0,229,
1.9167,-112.5,-231.3,-405.0,-204.9,-209.4,-92.7,-61.2,-64.5,444.6,-60.3,411.0,3849.6,-229.5,1402.8,-1376.7,-56.7,1.8,2.4,967.2,-5821.2,-16.5,87.0,438.0,-226.8,0,3450,0,230,
1.9200,-105.6,-226.5,-398.1,-200.1,-203.4,-92.1,-59.4,-63.0,74.1,-49.5,418.8,3837.0,-221.1,1406.7,-1362.0,-54.9,1.5,2.7,962.1,-5807.4,-17.1,85.5,440.7,-224.4,0,3456,0,231,
1.9233,-112.2,-228.0,-405.0,-204.3,-206.7,-89.4,-63.6,-66.6,-296.4,-60.0,416.1,3798.0,-223.2,1399.2,-1360.2,-68.1,1.2,2.4,951.0,-5796.6,-16.8,85.5,438.0,-227.1,0,3462,0,232,
1.9267,-105.6,-227.4,-396.9,-199.2,-195.9,-85.8,-59.1,-60.3,-296.4,-54.3,420.3,3827.7,-217.5,1406.4,-1334.4,-76.5,1.5,2.4,947.1,-5781.9,-16.8,91.2,441.3,-220.2,0,3468,0,233,
1.9300,-105.0,-215.4,-395.1,-197.4,-193.5,-86.7,-55.2,-60.0,222.3,-61.2,423.0,3836.1,-206.1,1412.7,-1324.2,-58.2,1.5,2.7,963.3,-5796.9,-17.1,90.6,453.0,-218.1,0,3474,0,234,
1.9333,-109.2,-222.6,-396.0,-196.5,-193.5,-84.3,-56.4,-58.2,296.4,-54.6,419.4,3830.7,-211.8,1406.7,-1319.7,-61.8,1.5,2.4,942.6,-5774.4,-16.5,96.0,443.4,-207.0,0,3480,0,235,
1.9367,-110.7,-221.4,-396.6,-192.9,-189.6,-83.7,-57.9,-61.5,222.3,-63.9,411.3,3798.3,-212.1,1406.4,-1343.7,-85.5,1.2,2.7,922.5,-5798.7,-16.5,83.1,460.2,-213.6,0,3486,0,236,
1.9400,-105.9,-222.3,-397.2,-192.6,-190.5,-82.8,-59.4,-65.1,-370.5,-60.0,406.5,3770.1,-207.9,1411.5,-1349.7,-86.1,1.5,2.4,908.7,-5810.1,-17.4,93.0,456.6,-219.6,0,3492,0,237,
1.9433,-111.6,-224.4,-400.5,-199.2,-183.0,-92.7,-65.1,-71.7,-296.4,-57.3,402.3,3760.8,-207.3,1413.3,-1343.1,-92.7,1.2,2.4,902.1,-5829.3,-16.8,77.7,455.7,-234.3,0,3498,0,238,
1.9467,-117.3,-223.5,-393.3,-195.3,-204.6,-86.4,-61.2,-66.6,296.4,-60.6,418.8,3863.7,-211.2,1397.7,-1347.3,-81.3,1.2,2.7,907.2,-5777.7,-17.1,69.0,470.4,-222.6,0,3504,0,239,
1.9500,-112.8,-214.5,-390.6,-189.3,-197.4,-84.6,-59.1,-61.5,370.5,-65.7,418.2,3856.5,-200.1,1401.6,-1343.7,-75.0,0.9,2.7,897.9,-5725.8,-17.1,91.5,470.1,-224.7,0,3510,0,240,
1.9533,-113.4,-225.0,-389.4,-185.1,-202.2,-79.8,-55.8,-58.8,296.4,-54.3,426.0,3892.8,-213.6,1401.9,-1339.8,-77.7,1.5,2.1,887.7,-5748.6,-16.8,95.1,478.8,-213.6,0,3516,0,241,
1.9567,-114.3,-215.4,-387.0,-183.0,-196.2,-77.1,-53.4,-54.6,-74.1,-54.3,427.2,3903.0,-203.4,1402.5,-1346.4,-80.4,0.9,2.7,907.8,-5751.3,-16.8,99.9,468.0,-200.7,0,3522,0,242,
1.9600,-113.1,-220.8,-391.8,-187.5,-207.6,-81.9,-54.0,-56.1,-148.2,-55.8,419.1,3855.3,-210.9,1404.6,-1342.8,-74.4,1.5,2.4,891.9,-5753.4,-16.8,77.7,472.2,-222.3,0,3528,0,243,
1.9633,-109.8,-215.1,-383.1,-184.2,-200.7,-82.8,-50.4,-51.6,296.4,-57.3,424.2,3833.1,-192.6,1407.0,-1335.9,-52.5,0.9,2.1,901.2,-5748.3,-16.8,66.3,475.2,-223.8,0,3534,0,244,
1.9667,-110.4,-213.9,-384.3,-180.6,-212.1,-83.7,-50.1,-53.1,370.5,-70.2,424.8,3844.2,-200.4,1400.4,-1326.3,-54.0,1.5,2.1,896.1,-5731.2,-17.1,81.6,479.7,-222.9,0,3540,0,245,
1.9700,-112.5,-222.3,-390.0,-184.5,-209.7,-86.4,-51.9,-54.0,74.1,-57.9,423.6,3867.9,-212.7,1395.3,-1332.6,-53.1,0.9,2.7,880.8,-5739.3,-16.8,70.2,473.4,-226.2,0,3546,0,246,
1.9733,-111.0,-214.8,-388.8,-185.7,-202.2,-86.4,-53.7,-54.0,-370.5,-60.3,422.7,3847.2,-200.1,1400.1,-1333.8,-52.8,1.2,2.4,874.8,-5732.7,-17.1,80.4,464.4,-224.4,0,3552,0,247,
1.9767,-111.9,-208.8,-384.9,-183.0,-196.2,-84.0,-50.7,-56.7,-296.4,-53.7,426.0,3846.3,-201.0,1404.6,-1335.9,-59.7,0.9,2.4,871.5,-5729.1,-17.1,96.0,465.9,-217.5,0,3558,0,248,
1.9800,-111.6,-214.8,-387.3,-181.5,-195.0,-85.5,-52.2,-57.6,444.6,-55.2,428.4,3804.3,-201.3,1398.0,-1305.9,-43.2,0.9,2.1,859.2,-5736.0,-17.1,87.3,475.8,-225.0,0,3564,0,249,
1.9833,-113.7,-215.1,-383.4,-180.3,-203.1,-90.6,-53.4,-59.4,370.5,-55.2,425.7,3836.4,-193.8,1411.8,-1302.9,-33.0,1.2,2.4,851.7,-5740.2,-16.8,66.3,477.6,-228.9,0,3570,0,250,
1.9867,-115.8,-219.9,-386.1,-174.6,-199.5,-88.8,-54.0,-56.1,0.0,-56.4,426.9,3836.7,-200.4,1400.7,-1290.3,-32.7,1.2,2.4,835.8,-5724.6,-17.1,100.2,468.6,-223.2,0,3576,0,251,
1.9900,-117.0,-219.3,-381.9,-180.0,-198.9,-86.1,-50.1,-51.6,-296.4,-49.2,423.6,3816.0,-199.5,1405.5,-1292.4,-47.7,1.2,2.4,835.5,-5724.3,-16.8,83.1,483.6,-221.1,0,3582,0,252,
1.9933,-119.1,-228.0,-390.9,-180.6,-192.3,-88.2,-46.5,-52.5,-518.7,-62.7,409.8,3774.6,-203.4,1404.6,-1291.8,-52.2,1.2,2.7,817.2,-5722.5,-16.8,82.8,486.0,-216.3,0,3588,0,253,
1.9967,-121.5,-226.8,-388.2,-182.7,-192.3,-84.6,-48.9,-56.7,74.1,-62.1,411.0,3795.6,-207.9,1402.5,-1254.9,-9.3,1.2,2.4,810.3,-5713.8,-17.1,99.6,481.2,-216.0,0,3594,0,254,
2.0000,-115.8,-221.7,-384.6,-186.0,-202.2,-83.4,-49.8,-61.2,296.4,-60.9,417.3,3789.0,-196.8,1410.6,-1221.6,2.1,1.2,2.7,822.9,-5717.4,-17.1,96.0,476.7,-216.0,0,3600,0,255,
2.0033,-119.1,-227.1,-383.4,-183.6,-197.7,-81.9,-49.2,-57.3,-74.1,-39.6,408.3,3774.0,-196.8,1405.5,-1218.0,-6.0,1.2,2.4,834.6,-5705.4,-17.1,96.6,462.6,-222.0,0,3606,0,0,
2.0067,-118.2,-216.0,-377.1,-175.2,-189.9,-71.7,-39.9,-48.0,-370.5,-42.0,416.1,3806.1,-189.6,1399.8,-1225.5,-9.6,1.2,2.7,846.6,-5690.1,-17.4,115.2,449.1,-192.6,0,3612,0,1,
2.0100,-117.0,-216.3,-371.7,-177.0,-189.3,-65.4,-39.0,-43.2,-370.5,-46.5,418.8,3827.4,-193.5,1403.7,-1228.8,-18.0,1.2,2.1,834.6,-5689.2,-16.8,107.1,444.3,-205.2,0,3618,0,2,
2.0133,-122.1,-219.6,-384.3,-189.0,-202.5,-77.7,-45.0,-47.7,222.3,-67.8,391.2,3783.0,-203.4,1394.1,-1220.4,-17.7,1.2,2.4,809.4,-5703.6,-17.1,103.5,442.5,-216.6,0,3624,0,3,
2.0167,-123.6,-216.9,-377.7,-183.0,-202.2,-72.3,-45.9,-46.8,370.5,-57.9,401.1,3797.7,-195.3,1394.4,-1226.7,-22.2,0.9,2.4,826.8,-5700.0,-17.1,104.4,434.1,-215.1,0,3630,0,4,
2.0200,-127.2,-213.9,-378.0,-180.9,-194.1,-71.1,-43.8,-43.2,0.0,-51.6,402.0,3812.7,-196.8,1383.6,-1269.3,-35.4,1.2,2.7,815.7,-5684.1,-17.1,90.3,418.8,-208.5,0,3636,0,5,
2.0233,-125.1,-212.7,-376.2,-181.8,-186.6,-67.5,-45.0,-41.1,-444.6,-57.0,398.1,3763.8,-196.2,1389.0,-1279.8,-44.4,1.2,3.0,796.8,-5748.6,-17.1,71.1,414.6,-216.0,0,3642,0,6,
2.0267,-123.3,-212.7,-381.6,-179.4,-157.5,-63.3,-45.0,-42.0,-518.7,-62.4,393.9,3606.6,-195.6,1388.7,-1274.7,-56.4,1.5,2.1,773.1,-5771.4,-17.4,84.0,432.9,-214.5,0,3648,0,7,
2.0300,-121.5,-214.2,-379.5,-180.6,-180.9,-70.5,-46.8,-47.1,222.3,-51.9,397.5,3740.4,-197.7,1396.2,-1268.7,-26.1,1.2,2.4,775.8,-5709.9,-17.1,87.6,433.2,-217.8,0,3654,0,8,
2.0333,-121.2,-205.8,-378.0,-189.9,-198.6,-77.4,-51.9,-54.6,222.3,-45.9,405.3,3852.6,-184.5,1394.7,-1263.6,8.4,1.5,2.1,770.1,-5652.9,-16.8,76.2,427.2,-227.4,0,3660,0,9,
2.0367,-121.5,-216.3,-382.2,-185.4,-199.5,-73.2,-49.8,-53.1,74.1,-47.4,400.5,3858.3,-202.8,1390.8,-1282.5,-14.7,1.2,2.4,756.9,-5660.1,-16.8,89.7,429.0,-224.4,0,3666,0,10,
2.0400,-117.6,-217.2,-380.4,-185.7,-201.9,-75.9,-48.0,-53.1,-518.7,-51.0,401.4,3836.7,-194.7,1400.1,-1279.2,-11.1,0.9,2.4,754.2,-5658.6,-16.8,88.5,422.1,-231.0,0,3672,0,11,
2.0433,-114.3,-213.3,-384.6,-185.7,-195.6,-74.7,-53.1,-54.3,-370.5,-59.4,402.9,3816.0,-195.0,1396.5,-1258.5,-9.3,1.5,2.4,746.7,-5655.9,-17.1,93.9,422.7,-221.7,0,3678,0,12,
2.0467,-117.6,-215.1,-383.7,-182.1,-193.5,-74.1,-51.9,-52.2,74.1,-47.4,405.3,3798.9,-200.1,1393.5,-1241.1,5.4,1.2,2.7,752.4,-5644.8,-16.8,94.5,438.6,-220.8,0,3684,0,13,
2.0500,-111.0,-211.8,-380.4,-174.6,-180.0,-67.5,-46.2,-47.7,370.5,-35.1,409.8,3807.0,-184.5,1403.1,-1242.3,-3.9,1.2,2.4,745.8,-5642.1,-16.5,108.3,448.5,-216.6,0,3690,0,14,
2.0533,-112.2,-212.4,-387.0,-182.4,-186.0,-72.9,-46.2,-52.8,-296.4,-37.2,402.9,3778.8,-192.3,1404.0,-1229.4,-11.1,1.2,2.4,722.1,-5658.0,-16.8,111.0,443.4,-221.1,0,3696,0,15,
2.0567,-113.4,-215.7,-387.6,-188.1,-194.7,-75.6,-54.3,-61.5,-444.6,-45.9,403.2,3787.5,-196.8,1408.2,-1226.7,-13.5,1.2,2.4,720.9,-5675.4,-17.1,97.5,446.1,-221.4,0,3702,0,16,
2.0600,-111.3,-209.1,-381.9,-184.2,-190.2,-75.0,-51.3,-52.8,-444.6,-48.9,403.5,3742.8,-191.4,1415.4,-1206.0,-9.6,0.9,2.4,709.2,-5677.2,-17.1,102.0,457.2,-222.9,0,3708,0,17,
2.0633,-113.7,-216.0,-378.6,-178.8,-186.3,-74.4,-52.5,-53.1,222.3,-45.0,396.3,3771.0,-194.4,1418.4,-1181.1,8.7,1.2,2.4,707.1,-5669.7,-17.1,90.3,462.0,-220.2,0,3714,0,18,
2.0667,-108.9,-213.6,-369.6,-172.5,-178.2,-67.2,-44.1,-47.1,444.6,-39.0,414.6,3808.8,-193.2,1414.8,-1178.1,0.0,0.9,2.7,703.8,-5654.7,-17.1,115.2,458.7,-211.5,0,3720,0,19,
2.0700,-103.2,-204.6,-370.5,-169.5,-172.5,-59.1,-42.6,-41.1,-74.1,-42.6,409.5,3794.1,-191.7,1418.1,-1185.6,-7.8,0.9,2.4,699.9,-5658.6,-16.8,111.9,476.1,-202.5,0,3726,0,20,
2.0733,-104.7,-205.8,-371.7,-162.6,-164.1,-57.6,-38.4,-37.5,-296.4,-40.5,405.9,3732.6,-196.8,1405.5,-1185.3,-12.3,1.5,2.4,702.3,-5677.5,-16.8,110.7,482.7,-208.8,0,3732,0,21,
2.0767,-102.9,-202.2,-369.6,-161.1,-172.2,-57.9,-40.2,-36.0,-444.6,-33.6,408.6,3770.7,-186.6,1410.6,-1160.4,3.0,1.5,2.7,687.6,-5663.4,-16.8,111.9,480.9,-206.1,0,3738,0,22,
2.0800,-106.5,-205.2,-373.2,-172.2,-181.5,-59.7,-40.2,-41.1,370.5,-48.0,408.3,3773.7,-188.7,1405.8,-1113.0,24.9,1.2,2.4,689.1,-5663.1,-16.8,116.1,471.0,-208.2,0,3744,0,23,
2.0833,-102.0,-198.0,-366.6,-165.9,-175.8,-53.1,-38.4,-34.2,444.6,-27.3,409.2,3772.8,-178.2,1411.8,-1123.8,16.5,1.2,2.7,692.7,-5663.7,-16.8,111.6,477.9,-213.6,0,3750,0,24,
2.0867,-103.8,-197.4,-365.4,-158.7,-162.9,-51.3,-35.7,-31.2,-74.1,-35.7,410.4,3820.2,-196.2,1408.5,-1123.8,-11.1,1.2,2.1,667.2,-5663.4,-17.1,115.2,484.8,-207.0,0,3756,0,25,
2.0900,-109.8,-208.2,-370.8,-164.7,-166.5,-55.2,-40.5,-38.1,-296.4,-55.8,396.9,3786.0,-203.7,1400.7,-1148.4,-8.7,1.2,2.4,651.0,-5661.0,-17.1,112.5,473.1,-217.2,0,3762,0,26,
2.0933,-114.3,-216.9,-378.0,-170.7,-162.6,-62.7,-48.9,-45.6,-296.4,-43.5,387.3,3727.2,-213.0,1402.8,-1137.6,0.9,0.9,2.7,638.7,-5687.1,-17.1,98.7,475.2,-214.5,0,3768,0,27,
2.0967,-114.3,-213.6,-377.4,-173.4,-179.4,-60.9,-43.8,-47.1,444.6,-48.6,400.2,3759.9,-210.6,1403.1,-1127.1,-2.4,1.5,2.4,648.6,-5649.9,-16.8,105.6,487.2,-203.1,0,3774,0,28,
2.1000,-117.0,-219.0,-381.6,-175.2,-165.9,-59.1,-39.6,-46.5,518.7,-51.3,388.2,3730.8,-219.6,1390.8,-1107.9,14.7,1.2,2.1,624.6,-5721.3,-17.1,99.3,500.1,-210.0,0,3780,0,29,
2.1033,-111.9,-216.6,-384.0,-177.9,-152.7,-60.0,-47.7,-49.8,74.1,-54.3,387.9,3708.3,-215.1,1395.9,-1128.3,-0.9,1.2,2.4,612.3,-5691.6,-17.1,109.5,483.9,-207.0,0,3786,0,30,
2.1067,-112.8,-218.7,-387.9,-186.9,-191.1,-70.5,-48.0,-51.9,-370.5,-54.3,386.1,3778.8,-208.8,1398.6,-1126.2,-3.6,1.2,2.1,608.4,-5662.2,-16.8,98.4,476.4,-216.9,0,3792,0,31,
2.1100,-110.1,-216.0,-384.9,-188.1,-192.6,-69.9,-47.7,-54.3,-148.2,-49.2,394.5,3797.1,-209.7,1400.4,-1112.1,10.8,1.5,2.4,618.9,-5640.0,-17.1,90.6,475.5,-220.5,0,3798,0,32,
2.1133,-108.9,-215.7,-384.6,-183.0,-189.0,-71.7,-45.0,-50.7,370.5,-50.4,392.1,3776.1,-207.3,1410.9,-1082.4,36.6,0.9,2.7,620.1,-5626.8,-16.8,99.0,477.9,-214.5,0,3804,0,33,
2.1167,-113.4,-221.1,-390.9,-194.4,-201.0,-74.1,-46.2,-59.1,592.8,-57.0,382.5,3781.8,-212.4,1400.4,-1086.9,25.8,1.2,2.7,604.8,-5633.4,-17.1,102.6,474.0,-215.4,0,3810,0,34,
2.1200,-107.7,-218.7,-384.0,-188.7,-198.3,-77.4,-51.9,-56.7,222.3,-54.9,392.1,3787.2,-210.3,1400.1,-1086.9,8.4,1.5,2.4,603.3,-5642.7,-17.1,94.2,469.2,-222.3,0,3816,0,35,
2.1233,-103.2,-206.7,-373.2,-175.5,-183.6,-66.9,-47.4,-46.8,-148.2,-39.9,406.2,3784.2,-199.2,1399.8,-1087.2,-2.1,1.2,2.4,613.8,-5620.2,-16.8,126.3,473.7,-208.2,0,3822,0,36,
2.1267,-102.3,-205.2,-371.4,-174.0,-185.4,-68.7,-46.8,-46.8,-148.2,-50.7,396.0,3783.9,-199.8,1407.9,-1078.2,12.6,1.2,1.8,594.6,-5613.3,-16.8,113.7,477.6,-209.1,0,3828,0,37,
2.1300,-103.2,-209.7,-368.7,-173.7,-185.7,-67.8,-50.4,-46.8,592.8,-54.6,395.4,3757.5,-207.9,1404.9,-1073.1,29.1,0.9,2.4,602.4,-5620.8,-17.1,110.1,482.1,-213.0,0,3834,0,38,
2.1333,-105.3,-210.3,-369.9,-171.9,-183.9,-68.7,-47.7,-47.7,592.8,-39.0,405.6,3775.5,-213.9,1401.6,-1056.0,49.2,1.5,2.4,591.0,-5622.6,-17.1,118.8,472.2,-209.4,0,3840,0,39,
2.1367,-106.8,-214.2,-373.5,-171.6,-184.5,-67.5,-46.2,-45.6,296.4,-45.9,400.2,3805.2,-223.8,1401.6,-1097.1,43.2,1.5,2.4,584.7,-5627.4,-16.8,104.7,474.0,-202.2,0,3846,0,40,
2.1400,-105.3,-213.3,-368.7,-170.7,-180.9,-66.0,-46.5,-45.6,-296.4,-45.9,401.7,3779.4,-212.4,1397.7,-1094.1,15.3,0.9,2.4,578.7,-5629.8,-16.8,95.4,478.5,-209.1,0,3852,0,41,
2.1433,-109.5,-211.2,-367.8,-167.7,-180.3,-63.3,-40.5,-42.9,-222.3,-47.1,403.8,3749.4,-214.2,1399.5,-1080.0,37.8,1.2,2.7,572.1,-5625.9,-16.8,109.5,482.1,-204.9,0,3858,0,42,
2.1467,-109.5,-210.9,-371.7,-165.6,-172.5,-63.6,-45.3,-42.9,666.9,-53.4,404.4,3731.4,-213.0,1403.7,-1056.3,48.0,1.5,2.4,576.6,-5618.7,-17.4,111.0,477.3,-199.2,0,3864,0,43,
2.1500,-103.8,-210.3,-366.0,-159.6,-160.5,-60.3,-43.5,-38.1,592.8,-52.8,402.0,3663.0,-216.0,1413.6,-1042.5,53.4,1.2,2.4,571.8,-5631.9,-17.1,114.0,469.2,-193.5,0,3870,0,44,
2.1533,-105.6,-210.9,-368.1,-164.7,-165.9,-60.0,-47.4,-40.8,296.4,-45.3,401.4,3739.2,-207.9,1413.6,-1033.8,45.6,1.2,2.4,557.7,-5619.0,-16.8,106.2,468.3,-200.4,0,3876,0,45,
2.1567,-108.0,-218.1,-372.3,-173.1,-180.0,-69.6,-53.1,-47.7,-148.2,-52.5,390.6,3772.8,-218.7,1415.4,-1015.2,48.9,1.2,2.7,545.4,-5639.4,-17.4,101.1,456.9,-214.8,0,3882,0,46,
2.1600,-110.1,-214.2,-369.3,-171.0,-179.4,-64.8,-54.3,-46.8,-74.1,-40.2,402.9,3796.2,-216.3,1408.5,-1005.6,48.0,1.2,2.7,545.1,-5617.2,-16.8,119.4,457.5,-206.7,0,3888,0,47,
2.1633,-110.1,-216.0,-373.8,-174.9,-179.7,-69.0,-48.6,-51.0,518.7,-46.8,403.2,3763.5,-218.4,1412.4,-969.6,80.1,0.9,2.4,538.8,-5621.4,-17.1,111.9,472.8,-204.6,0,3894,0,48,
2.1667,-103.2,-208.8,-367.5,-171.6,-178.8,-64.2,-47.1,-48.6,592.8,-42.0,407.7,3776.7,-205.5,1419.0,-951.6,78.6,1.2,2.7,550.8,-5614.5,-16.8,108.0,473.4,-199.5,0,3900,0,49,
2.1700,-105.3,-202.8,-364.2,-165.3,-165.3,-58.2,-44.4,-42.6,222.3,-30.3,408.3,3774.3,-202.2,1416.0,-961.8,78.0,1.5,2.1,543.3,-5610.3,-17.1,124.8,486.6,-195.3,0,3906,0,50,
2.1733,-97.8,-199.5,-357.3,-163.5,-165.3,-55.2,-46.2,-36.0,-148.2,-32.4,412.2,3729.3,-198.3,1420.8,-968.7,62.1,1.5,2.4,543.3,-5601.0,-17.1,136.2,475.2,-188.7,0,3912,0,51,
2.1767,-99.6,-202.2,-360.0,-159.3,-160.2,-53.4,-43.8,-39.9,-222.3,-38.4,408.0,3715.8,-206.4,1419.0,-952.2,63.6,0.9,2.1,543.3,-5592.6,-16.8,120.9,480.6,-187.5,0,3918,0,52,
2.1800,-91.8,-201.6,-359.1,-160.5,-163.5,-54.0,-47.7,-33.9,518.7,-27.9,408.6,3737.1,-188.7,1425.0,-924.6,92.4,1.2,2.4,554.7,-5606.4,-17.1,130.5,477.0,-182.7,0,3924,0,53,
2.1833,-93.9,-199.8,-359.4,-164.7,-168.0,-53.7,-52.8,-36.9,666.9,-24.6,402.3,3765.9,-195.3,1418.1,-916.2,77.4,0.9,2.4,534.0,-5599.5,-16.8,137.1,468.3,-188.4,0,3930,0,54,
2.1867,-88.2,-200.1,-358.5,-160.5,-162.6,-54.0,-50.4,-33.9,148.2,-21.0,411.0,3750.3,-201.6,1431.9,-933.3,84.0,1.2,2.4,547.5,-5607.6,-16.8,131.7,468.0,-188.4,0,3936,0,55,
2.1900,-86.7,-194.1,-354.9,-153.3,-149.4,-52.5,-51.3,-28.8,-222.3,-15.0,409.8,3746.1,-191.7,1432.2,-941.4,74.7,0.9,2.1,532.5,-5606.1,-16.8,121.8,468.3,-189.3,0,3942,0,56,
2.1933,-88.2,-198.9,-353.1,-157.2,-159.6,-49.8,-45.3,-28.8,-74.1,-23.7,412.8,3782.4,-197.7,1426.2,-951.3,87.6,1.2,2.4,509.4,-5591.1,-16.5,138.0,475.8,-178.8,0,3948,0,57,
2.1967,-86.7,-190.5,-355.2,-159.6,-160.5,-48.6,-41.7,-27.3,592.8,-13.8,410.4,3742.5,-191.4,1432.2,-918.9,111.6,0.9,1.8,516.9,-5622.3,-17.1,144.9,486.3,-180.9,0,3954,0,58,
2.2000,-90.6,-198.0,-354.9,-153.0,-142.5,-43.5,-41.7,-27.6,518.7,-17.7,407.1,3719.4,-204.3,1425.9,-931.2,112.8,0.9,2.4,505.2,-5603.7,-16.8,140.1,481.5,-166.5,0,3960,0,59,
2.2033,-96.3,-203.4,-363.9,-164.1,-162.9,-56.4,-48.9,-38.1,74.1,-26.1,393.3,3670.2,-206.1,1416.6,-963.9,81.9,1.5,2.1,480.3,-5610.3,-17.1,123.3,481.8,-187.2,0,3966,0,60,
2.2067,-96.6,-209.1,-367.8,-173.1,-174.6,-62.1,-50.7,-43.5,-296.4,-38.1,383.4,3623.1,-215.7,1414.8,-975.0,73.8,1.2,2.7,449.7,-5607.3,-17.1,128.4,472.8,-186.0,0,3972,0,61,
2.2100,-95.7,-209.4,-370.2,-173.1,-176.4,-64.2,-50.1,-45.9,-148.2,-46.8,385.8,3713.7,-217.2,1412.7,-965.4,86.4,0.9,2.1,441.3,-5595.0,-17.1,112.8,473.4,-198.6,0,3978,0,62,
2.2133,-97.5,-212.4,-369.6,-167.7,-171.6,-60.3,-48.6,-43.5,666.9,-32.7,381.3,3714.3,-204.6,1409.7,-957.9,112.8,0.9,2.7,443.7,-5576.7,-16.8,125.4,457.5,-191.4,0,3984,0,63,
2.2167,-97.2,-209.4,-368.7,-165.9,-165.0,-62.1,-51.3,-39.6,592.8,-27.9,375.3,3666.0,-204.0,1413.0,-943.5,96.0,0.9,2.4,445.2,-5588.1,-16.8,119.7,463.5,-191.1,0,3990,0,64,
2.2200,-96.0,-214.2,-373.8,-165.6,-163.5,-58.2,-49.5,-38.7,222.3,-39.6,372.6,3720.3,-216.6,1410.9,-948.0,83.7,1.2,2.7,409.5,-5608.5,-16.8,119.4,460.8,-192.0,0,3996,0,65,
2.2233,-96.6,-215.7,-372.6,-173.1,-184.2,-62.1,-54.0,-43.8,-148.2,-39.6,372.6,3785.7,-206.7,1415.1,-963.3,66.6,1.2,2.4,402.9,-5610.3,-17.1,123.0,454.8,-183.9,0,4002,0,66,
2.2267,-99.3,-213.6,-372.9,-171.0,-178.5,-60.6,-50.7,-43.8,0.0,-38.7,372.0,3768.6,-210.6,1414.8,-960.9,72.6,1.2,2.4,381.6,-5602.2,-16.8,119.1,461.7,-175.8,0,4008,0,67,
2.2300,-95.4,-213.0,-370.8,-169.5,-174.0,-57.0,-47.4,-42.0,444.6,-39.9,378.0,3763.2,-216.9,1413.9,-946.2,84.3,1.5,2.7,386.1,-5612.4,-17.1,120.3,464.4,-183.6,0,4014,0,68,
2.2333,-96.9,-210.0,-371.4,-168.9,-180.0,-66.6,-52.2,-41.1,592.8,-31.8,375.3,3732.6,-212.1,1415.4,-950.1,78.9,1.2,2.4,382.5,-5620.5,-16.8,117.0,454.5,-196.8,0,4020,0,69,
2.2367,-98.4,-211.8,-371.1,-168.9,-177.6,-66.6,-54.0,-44.7,74.1,-48.0,375.3,3689.4,-223.5,1418.7,-961.5,80.1,0.9,2.4,374.4,-5615.1,-17.1,107.4,451.8,-199.5,0,4026,0,70,
2.2400,-98.7,-210.9,-367.8,-166.5,-176.4,-66.3,-54.3,-41.7,-296.4,-42.9,381.3,3687.0,-220.2,1410.9,-978.0,70.8,0.9,2.1,371.1,-5602.2,-17.4,122.7,449.7,-190.5,0,4032,0,71,
2.2433,-99.6,-211.2,-371.1,-168.9,-173.7,-63.9,-52.5,-45.6,-222.3,-41.7,381.3,3728.4,-218.4,1410.9,-978.0,79.8,1.2,2.4,357.3,-5605.5,-17.4,114.9,457.5,-197.4,0,4038,0,72,
2.2467,-103.5,-225.9,-381.9,-181.5,-194.4,-76.8,-62.7,-57.9,518.7,-58.5,366.0,3715.5,-228.6,1407.6,-956.1,86.4,1.5,2.4,349.8,-5615.7,-16.8,112.8,465.0,-202.8,0,4044,0,73,
2.2500,-104.4,-224.7,-382.2,-179.7,-194.1,-75.6,-60.3,-56.7,296.4,-51.3,365.4,3702.6,-222.9,1398.6,-953.7,85.2,0.9,2.4,343.2,-5622.9,-17.1,104.7,462.3,-195.3,0,4050,0,74,
2.2533,-104.1,-225.3,-388.8,-181.5,-193.8,-80.4,-61.8,-61.2,74.1,-62.4,365.1,3678.3,-229.5,1394.4,-973.5,60.9,1.5,2.4,335.4,-5620.5,-16.5,102.9,451.5,-206.7,0,4056,0,75,
2.2567,-105.0,-228.6,-389.7,-177.6,-187.8,-72.6,-54.6,-55.5,-296.4,-58.2,363.3,3687.0,-241.8,1400.1,-972.6,56.7,0.9,2.4,322.5,-5624.7,-16.8,114.0,450.0,-196.2,0,4062,0,76,
2.2600,-109.2,-225.0,-384.0,-179.1,-185.7,-71.4,-53.4,-53.4,-370.5,-44.4,377.1,3687.0,-231.9,1400.4,-970.8,68.7,0.9,1.8,332.4,-5628.6,-16.8,115.5,453.9,-197.1,0,4068,0,77,
2.2633,-105.0,-224.7,-381.3,-176.1,-187.2,-69.6,-51.3,-46.8,370.5,-60.9,372.9,3687.9,-239.1,1404.9,-933.0,84.6,1.2,2.4,337.2,-5619.6,-17.1,106.2,472.8,-200.7,0,4074,0,78,
2.2667,-102.9,-223.8,-374.7,-171.9,-180.9,-66.0,-53.7,-41.7,518.7,-48.6,375.3,3689.7,-237.3,1412.1,-932.4,82.8,1.2,2.7,340.5,-5627.7,-17.1,118.8,470.4,-191.1,0,4080,0,79,
2.2700,-98.7,-218.4,-370.5,-168.6,-175.8,-60.0,-50.1,-34.8,148.2,-41.1,383.4,3656.1,-226.8,1418.1,-948.6,75.0,1.2,2.4,343.8,-5614.2,-16.8,117.0,475.8,-188.1,0,4086,0,80,
2.2733,-101.1,-217.5,-371.7,-167.1,-166.8,-61.5,-54.0,-39.3,-296.4,-36.6,377.7,3601.2,-222.6,1424.4,-942.3,59.4,1.2,2.4,330.9,-5611.5,-16.8,124.8,466.2,-191.1,0,4092,0,81,
2.2767,-97.2,-212.7,-370.8,-163.5,-167.7,-60.0,-49.2,-38.4,-296.4,-41.1,380.7,3609.3,-221.4,1428.3,-941.7,73.8,1.2,3.0,337.2,-5607.6,-17.1,114.6,468.0,-193.5,0,4098,0,82,
2.2800,-101.1,-211.2,-369.9,-169.5,-177.6,-63.0,-48.3,-36.0,518.7,-31.8,385.5,3641.1,-212.7,1417.5,-926.1,96.3,0.6,2.4,347.4,-5604.6,-16.8,114.3,472.2,-192.0,0,4104,0,83,
2.2833,-102.0,-214.2,-367.8,-164.1,-157.8,-64.2,-54.6,-34.8,518.7,-27.3,381.3,3664.5,-213.9,1415.4,-925.8,86.7,1.2,2.4,341.1,-5589.6,-17.1,118.5,461.7,-197.1,0,4110,0,84,
2.2867,-99.9,-212.1,-367.2,-168.3,-169.8,-63.6,-53.7,-30.9,0.0,-45.9,380.4,3688.2,-234.6,1418.4,-936.3,85.2,1.2,2.4,341.4,-5604.0,-16.8,119.1,458.7,-194.1,0,4116,0,85,
2.2900,-105.3,-213.9,-363.0,-162.0,-156.0,-64.2,-54.9,-35.7,-370.5,-47.7,380.7,3617.7,-218.4,1419.9,-932.1,73.5,1.2,2.1,344.7,-5598.9,-16.8,112.2,451.8,-197.1,0,4122,0,86,
2.2933,-105.3,-216.0,-364.5,-162.6,-172.5,-66.6,-54.6,-32.4,-148.2,-43.2,388.5,3708.3,-223.8,1413.6,-943.5,78.6,1.5,2.7,327.0,-5628.9,-17.1,120.3,456.6,-196.5,0,4128,0,87,
